WellName:  1API 0001  PR
Field:     PR-01
Operator:  PETROBRAS
Country:   BRA
RunNumber: 0

DEPT       GR         CALI       FFDC       NFDC       RHOB       DRHO        NPHI       FCNL       NCNL       TENS       
M          GAPI       IN         CPS        CPS        G/CC       G/CC        %LS        CPS        CPS        LB         
4033.315   0.0        8.43000    271.500    444.0000   2.591000   0.001000    19.02000   216.9000   423.7000   4316.000   
4033.163   67.2000    8.42000    278.200    447.9000   2.581000   0.005000    19.28000   226.2000   430.9000   4263.000   
4033.010   61.9000    8.42000    281.100    449.6000   2.578000   0.007000    19.32000   225.2000   420.0000   4205.000   
4032.858   70.0000    8.43000    280.900    447.9000   2.580000   0.005000    19.21000   226.5000   418.7000   4184.000   
4032.705   91.2000    8.42000    279.700    443.8000   2.579000   0.001000    19.10000   220.4000   427.1000   4201.000   
4032.553   113.2000   8.42000    278.700    441.9000   2.577000   0.0         19.15000   217.2000   418.4000   4228.000   
4032.400   122.1000   8.41000    278.000    443.3000   2.577000   0.001000    19.39000   217.2000   417.2000   4256.000   
4032.248   121.1000   8.43000    277.200    445.8000   2.582000   0.007000    19.52000   224.1000   423.3000   4256.000   
4032.096   119.5000   8.43000    274.500    448.8000   2.594000   0.013000    19.41000   226.6000   428.3000   4247.000   
4031.943   118.8000   8.41000    270.200    449.0000   2.607000   0.015000    19.11000   227.9000   425.1000   4235.000   
4031.791   119.1000   8.43000    267.900    446.8000   2.613000   0.013000    18.89000   223.8000   423.0000   4233.000   
4031.639   119.9000   8.41000    268.000    444.6000   2.613000   0.011000    18.93000   224.2000   427.5000   4247.000   
4031.486   120.0000   8.41000    266.600    444.4000   2.615000   0.016000    19.02000   226.3000   421.5000   4235.000   
4031.333   119.4000   8.49000    263.400    454.1000   2.623000   0.035000    18.96000   223.9000   418.2000   4252.000   
4031.181   119.0000   8.55000    264.500    479.8000   2.639000   0.068000    18.76000   228.0000   414.4000   4324.000   
4031.029   119.1000   8.57000    271.800    506.3000   2.661000   0.100000    18.48000   227.1000   406.1000   4378.000   
4030.876   119.0000   8.57000    277.900    516.2000   2.678000   0.114000    18.07000   228.2000   416.8000   4329.000   
4030.724   118.3000   8.67000    285.700    524.2999   2.668000   0.122000    17.51000   232.5000   423.3000   4422.000   
4030.572   117.8000   8.73000    310.700    559.4000   2.627000   0.149000    16.94000   247.9000   409.0000   4479.000   
4030.419   117.9000   8.91000    355.700    619.5000   2.585000   0.199000    16.01000   252.4000   419.6000   4528.000   
4030.267   117.8000   8.95000    400.300    669.4000   2.573000   0.248000    14.73000   290.1000   452.2000   4590.000   
4030.115   117.0000   8.96000    419.500    689.5000   2.594000   0.275000    13.00000   322.0000   505.6000   4641.000   
4029.962   116.7000   8.96000    408.400    669.4000   2.635000   0.265000    10.97000   389.6000   507.6000   4523.000   
4029.810   116.8000   8.95000    373.300    603.7999   2.677000   0.214000    8.73000    501.9000   556.2999   4338.000   
4029.657   117.0000   9.24000    323.400    521.9000   2.705000   0.139000    6.36000    517.4000   610.7000   4150.000   
4029.505   117.4000   9.39000    275.600    465.4000   2.716000   0.078000    5.12000    450.0000   611.7999   4115.000   
4029.353   118.4000   9.37000    244.700    448.4000   2.721000   0.050000    5.89000    357.4000   515.6000   4151.000   
4029.200   118.8000   9.37000    233.100    448.2000   2.726000   0.044000    8.59000    276.4000   446.0000   4207.000   
4029.048   117.2000   9.37000    231.400    446.6000   2.727000   0.041000    12.51000   208.0000   396.1000   4237.000   
4028.896   114.0000   9.38000    234.500    450.8000   2.714000   0.044000    16.64000   176.6000   342.1000   4245.000   
4028.743   110.1000   9.24000    246.300    479.9000   2.678000   0.063000    19.67000   172.5000   318.6000   4231.000   
4028.590   103.2000   8.97000    286.800    527.7999   2.616000   0.093000    19.60000   235.2000   375.4000   4216.000   
4028.438   92.8000    9.19000    348.200    552.7999   2.555000   0.108000    14.95000   373.5000   472.5000   4206.000   
4028.286   84.5000    9.04000    378.800    531.1000   2.526000   0.092000    9.11000    481.3000   568.2999   4240.000   
4028.133   81.1000    8.98000    355.100    487.0000   2.537000   0.055000    5.10000    530.6000   658.2000   4255.000   
4027.981   77.8000    8.97000    308.400    475.5000   2.536000   0.016000    4.12000    505.8000   630.6000   4308.000   
4027.829   69.1000    8.97000    344.600    515.1000   2.414000   -0.013000   5.66000    344.5000   475.4000   4355.000   
4027.676   56.9000    9.16000    552.900    572.5000   2.156000   -0.030000   9.03000    196.0000   353.4000   4402.000   
4027.524   46.8000    15.27000   901.600    611.2999   1.875000   -0.047000   10.58000   149.5000   326.4000   4435.000   
4027.371   40.2000    17.60000   1259.100   617.2000   1.662000   -0.071000   15.30000   133.3000   329.7000   4492.000   
4027.219   35.5000    17.58000   1491.100   609.0000   1.531000   -0.091000   20.12000   132.6000   302.9000   4508.000   
4027.066   33.0000    17.59000   1583.200   606.1000   1.466000   -0.100000   22.67000   120.3000   285.2000   4261.000   
4026.914   32.7000    17.60000   1598.500   605.5000   1.447000   -0.101000   23.87000   111.7000   260.0000   4200.000   
4026.762   33.6000    17.59000   1584.300   602.0000   1.448000   -0.103000   25.33000   84.0000    249.5000   4307.000   
4026.609   34.2000    17.58000   1568.000   598.7999   1.452000   -0.103000   28.48000   72.2000    245.0000   4361.000   
4026.457   34.4000    17.58000   1554.200   600.2000   1.460000   -0.094000   34.68000   66.6000    247.0000   4412.000   
4026.305   35.2000    17.59000   1517.900   606.4000   1.487000   -0.073000   41.87000   75.0000    246.0000   4464.000   
4026.152   36.6000    17.60000   1417.200   611.7999   1.550000   -0.043000   46.75000   69.6000    243.1000   4416.000   
4026.000   37.8000    17.59000   1250.200   613.6000   1.647000   -0.017000   48.23000   70.5000    238.2000   4439.000   
4025.847   38.4000    17.59000   1095.900   615.9000   1.739000   -0.004000   47.49000   68.6000    215.6000   4334.000   
4025.695   38.0000    17.60000   1041.000   619.5000   1.781000   -0.005000   43.57000   85.2000    331.3000   4252.000   
4025.542   37.1000    17.59000   1086.100   621.6000   1.764000   -0.016000   35.74000   144.1000   288.2000   4196.000   
4025.390   36.0000    17.59000   1164.100   619.7999   1.719000   -0.027000   27.30000   126.4000   279.2000   4211.000   
4025.238   35.5000    17.60000   1222.400   616.0000   1.678000   -0.036000   22.67000   128.7000   284.4000   4251.000   
4025.085   35.6000    17.59000   1258.200   613.7999   1.650000   -0.044000   20.25000   131.0000   287.3000   4323.000   
4024.933   35.3000    17.59000   1284.400   611.5000   1.630000   -0.051000   18.95000   134.9000   287.1000   4373.000   
4024.781   34.0000    17.59000   1304.200   607.7000   1.613000   -0.058000   17.77000   151.4000   312.7000   4416.000   
4024.628   31.8000    17.60000   1319.700   604.2000   1.603000   -0.058000   16.44000   163.7000   313.5000   4463.000   
4024.476   30.7000    17.59000   1307.400   601.7999   1.614000   -0.046000   15.36000   155.3000   322.7000   4508.000   
4024.323   31.7000    17.59000   1218.400   604.4000   1.668000   -0.022000   15.10000   153.4000   311.7000   4327.000   
4024.171   32.9000    17.59000   1068.500   610.7000   1.754000   -0.005000   15.99000   136.2000   295.0000   4451.000   
4024.019   33.1000    17.60000   984.500    613.4000   1.802000   -0.015000   17.89000   119.6000   292.0000   4469.000   
4023.866   32.6000    17.60000   1068.600   608.7000   1.756000   -0.046000   20.94000   95.0000    270.2000   4508.000   
4023.714   32.6000    17.58000   1260.000   600.4000   1.646000   -0.077000   25.31000   80.1000    239.6000   4567.000   
4023.562   32.7000    17.60000   1413.800   596.6000   1.551000   -0.094000   31.50000   74.2000    217.0000   4614.000   
4023.409   32.2000    17.58000   1469.900   596.0000   1.504000   -0.100000   37.16000   73.0000    234.3000   4666.000   
4023.256   32.0000    17.60000   1480.700   595.5000   1.489000   -0.103000   39.53000   73.5000    228.4000   4725.000   
4023.104   32.1000    17.57000   1496.300   595.4000   1.480000   -0.105000   39.74000   67.6000    212.7000   4777.000   
4022.952   32.0000    17.59000   1520.700   597.2999   1.469000   -0.107000   40.41000   65.6000    202.9000   4767.000   
4022.799   31.3000    17.60000   1546.300   600.9000   1.458000   -0.105000   42.17000   59.4000    206.8000   4635.000   
4022.647   30.3000    17.59000   1566.300   603.5000   1.452000   -0.103000   44.22000   58.8000    208.8000   4284.000   
4022.495   29.2000    17.59000   1581.600   605.4000   1.449000   -0.101000   46.18999   60.7000    197.0000   4157.000   
4022.342   28.4000    17.60000   1594.400   607.2999   1.445000   -0.101000   48.60000   53.4000    203.9000   4157.000   
4022.190   28.0000    17.59000   1602.100   607.9000   1.443000   -0.100000   52.53000   48.0000    200.9000   4244.000   
4022.037   27.8000    17.59000   1603.500   607.5000   1.443000   -0.099000   58.81000   50.0000    205.7000   4293.000   
4021.885   27.6000    17.60000   1602.700   608.2000   1.444000   -0.097000   66.12999   50.9000    195.0000   4330.000   
4021.732   28.5000    17.59000   1598.500   609.2000   1.448000   -0.095000   71.06999   50.0000    200.0000   4330.000   
4021.580   31.0000    17.60000   1579.900   608.4000   1.457000   -0.093000   71.62000   47.1000    201.9000   4328.000   
4021.428   33.6000    17.59000   1554.100   605.4000   1.468000   -0.093000   68.34000   57.8000    198.0000   4269.000   
4021.275   34.6000    17.59000   1529.300   601.2999   1.478000   -0.093000   61.83000   59.2000    218.8000   4256.000   
4021.123   33.2000    17.60000   1498.700   597.9000   1.489000   -0.093000   54.50000   65.3000    220.7000   4262.000   
4020.971   31.2000    17.58000   1461.400   596.2999   1.504000   -0.089000   49.71000   60.3000    207.0000   4322.000   
4020.818   30.0000    17.58000   1426.100   598.6000   1.520000   -0.083000   48.88000   57.0000    199.0000   4350.000   
4020.666   29.6000    17.60000   1409.100   604.1000   1.535000   -0.076000   50.71000   55.8000    210.0000   4348.000   
4020.513   30.1000    17.58000   1395.600   608.7000   1.549000   -0.070000   53.35000   55.0000    202.9000   4289.000   
4020.361   31.0000    16.58000   1378.500   608.6000   1.559000   -0.073000   57.79000   50.9000    208.8000   4281.000   
4020.208   31.5000    17.02000   1388.100   601.7999   1.552000   -0.086000   61.41000   50.9000    211.7000   4289.000   
4020.056   31.0000    17.61000   1431.100   591.1000   1.523000   -0.104000   64.45999   55.8000    206.9000   4334.000   
4019.904   30.8000    17.61000   1481.600   584.7999   1.487000   -0.115000   64.61000   58.4000    207.8000   4362.000   
4019.751   31.2000    17.60000   1512.200   588.5000   1.464000   -0.114000   60.47000   55.8000    207.8000   4376.000   
4019.599   31.5000    17.60000   1526.300   596.1000   1.458000   -0.108000   54.73000   64.7000    224.5000   4367.000   
4019.446   32.5000    17.61000   1536.700   599.6000   1.461000   -0.104000   48.81000   72.5000    201.9000   4375.000   
4019.294   36.6000    17.61000   1540.800   598.5000   1.463000   -0.105000   43.17000   68.6000    221.5000   4317.000   
4019.142   45.8000    17.60000   1542.300   597.1000   1.461000   -0.106000   38.10000   77.4000    217.6000   4297.000   
4018.989   58.5000    17.61000   1546.200   598.0000   1.460000   -0.102000   33.75999   86.2000    218.4000   4277.000   
4018.837   69.8000    17.60000   1538.900   600.5000   1.468000   -0.091000   30.29000   78.6000    234.6000   4297.000   
4018.685   75.8000    17.61000   1493.400   606.0000   1.499000   -0.070000   26.79000   100.0000   288.2000   4343.000   
4018.532   75.0000    17.42000   1395.500   614.7000   1.558000   -0.042000   21.54000   169.6000   497.0000   4373.000   
4018.380   68.1000    17.17000   1267.400   623.4000   1.638000   -0.015000   13.04000   517.4000   722.5000   4354.000   
4018.228   58.9000    16.88000   1158.100   630.5000   1.714000   0.005000    5.53000    593.1000   740.5000   4442.000   
4018.075   52.5000    16.76000   1103.900   636.5000   1.762000   0.014000    2.27000    594.0000   754.4000   4502.000   
4017.922   51.3000    16.63000   1100.900   640.9000   1.778000   0.017000    1.94000    608.9000   747.5000   4556.000   
4017.770   53.6000    16.64000   1117.600   644.1000   1.774000   0.017000    2.32000    586.4000   761.2999   4572.000   
4017.618   55.1000    16.63000   1132.900   645.6000   1.767000   0.018000    3.48000    427.7000   602.9000   4433.000   
4017.465   53.9000    16.62000   1145.200   640.6000   1.769000   0.021000    5.87000    245.6000   397.0000   4332.000   
4017.313   51.1000    14.09000   1097.800   617.2000   1.809000   0.027000    10.21000   256.8000   492.1000   4269.000   
4017.161   49.4000    9.78000    918.500    573.2999   1.924000   0.037000    14.34000   391.1000   551.4000   4290.000   
4017.008   50.2000    8.96000    653.800    527.2000   2.120000   0.045000    13.26000   449.5000   587.2999   4352.000   
4016.856   51.1000    8.89000    435.900    498.0000   2.332000   0.045000    9.85000    469.9000   580.1000   4377.000   
4016.703   50.3000    8.90000    348.500    488.5000   2.460000   0.036000    7.82000    430.6000   586.2000   4391.000   
4016.551   50.0000    8.90000    342.500    487.0000   2.487000   0.029000    7.52000    457.8000   601.9000   4396.000   
4016.398   52.0000    8.90000    347.500    486.0000   2.477000   0.026000    7.86000    446.6000   596.0000   4395.000   
4016.246   54.8000    8.90000    352.100    487.1000   2.466000   0.028000    8.23000    441.1000   578.4000   4365.000   
4016.094   56.5000    8.88000    355.400    493.0000   2.462000   0.037000    8.55000    424.5000   563.7000   4328.000   
4015.941   56.6000    8.82000    358.600    505.2000   2.466000   0.052000    8.79000    429.4000   565.6000   4357.000   
4015.789   55.4000    8.81000    362.800    516.4000   2.474000   0.065000    8.92000    408.8000   537.2000   4366.000   
4015.637   53.4000    8.80000    365.500    516.4000   2.484000   0.066000    9.07000    380.3000   501.9000   4395.000   
4015.484   52.2000    8.80000    362.300    504.0000   2.491000   0.054000    9.35000    359.8000   500.0000   4326.000   
4015.332   53.8000    8.81000    353.300    487.7000   2.492000   0.037000    9.67000    351.9000   497.0000   4337.000   
4015.179   56.9000    8.80000    342.800    478.2000   2.491000   0.026000    9.97000    346.5000   505.0000   4416.000   
4015.027   57.6000    8.81000    337.000    479.8000   2.488000   0.025000    10.08000   362.0000   513.4000   4455.000   
4014.875   55.4000    8.84000    339.900    487.7000   2.484000   0.032000    10.02000   370.1000   500.0000   4503.000   
4014.722   52.8000    8.84000    345.200    492.7000   2.485000   0.039000    9.91000    360.7000   510.6000   4489.000   
4014.570   53.0000    8.84000    344.900    490.6000   2.492000   0.041000    9.84000    354.3000   466.9000   4366.000   
4014.417   55.2000    8.84000    339.700    490.8000   2.499000   0.045000    9.97000    321.3000   466.9000   4298.000   
4014.265   56.9000    8.84000    341.100    505.6000   2.497000   0.059000    10.13000   331.0000   566.2999   4298.000   
4014.112   57.7000    8.84000    356.800    527.4000   2.491000   0.079000    9.91000    438.6000   527.4000   4269.000   
4013.960   58.8000    8.83000    372.500    534.1000   2.494000   0.089000    9.00000    448.0000   594.1000   4307.000   
4013.808   62.4000    8.82000    367.100    516.7999   2.513000   0.080000    7.46000    558.7999   600.0000   4354.000   
4013.655   68.1000    8.84000    340.800    491.6000   2.540000   0.061000    5.83000    561.7000   602.9000   4384.000   
4013.503   73.2000    8.85000    314.900    479.5000   2.557000   0.046000    4.63000    569.6000   612.7000   4391.000   
4013.351   76.7000    8.85000    310.900    491.0000   2.545000   0.051000    4.06000    555.7999   625.2000   4363.000   
4013.198   79.4000    8.88000    337.600    531.7999   2.504000   0.084000    4.08000    535.9000   626.7000   4293.000   
4013.046   81.5000    8.90000    394.300    596.5000   2.457000   0.143000    4.57000    529.7000   584.2999   4289.000   
4012.894   81.9000    8.90000    456.800    661.1000   2.443000   0.210000    5.33000    448.0000   513.7000   4352.000   
4012.741   80.1000    9.05000    481.600    696.4000   2.481000   0.262000    5.91000    421.5000   488.2000   4417.000   
4012.588   76.1000    9.19000    455.900    698.2999   2.555000   0.284000    6.17000    428.4000   504.9000   4413.000   
4012.436   71.9000    9.19000    411.300    675.7000   2.627000   0.272000    6.11000    416.6000   516.7999   4348.000   
4012.284   68.2000    9.18000    381.000    634.7999   2.659000   0.232000    5.87000    427.7000   517.0000   4305.000   
4012.131   64.0000    9.16000    365.800    583.1000   2.648000   0.175000    5.66000    459.0000   566.2999   4351.000   
4011.979   59.8000    9.05000    351.600    533.0000   2.614000   0.115000    5.72000    469.3000   582.1000   4397.000   
4011.827   56.7000    9.00000    338.400    501.2000   2.574000   0.069000    6.04000    438.6000   604.9000   4391.000   
4011.674   55.7000    8.99000    333.400    491.0000   2.536000   0.047000    6.88000    413.7000   598.0000   4364.000   
4011.521   56.2000    9.00000    338.900    494.8000   2.506000   0.042000    8.31000    398.0000   569.6000   4335.000   
4011.369   55.9000    8.97000    350.400    499.1000   2.485000   0.041000    9.78000    383.3000   528.4000   4338.000   
4011.217   53.8000    8.97000    359.900    498.2000   2.469000   0.041000    10.64000   368.6000   495.1000   4285.000   
4011.064   49.8000    8.97000    365.900    505.0000   2.458000   0.050000    10.51000   381.5000   480.3000   4278.000   
4010.912   46.1000    8.94000    371.900    519.1000   2.459000   0.067000    9.44000    417.6000   517.6000   4296.000   
4010.760   45.2000    8.92000    373.600    524.0000   2.476000   0.076000    7.76000    459.8000   567.9000   4343.000   
4010.607   47.7000    8.91000    363.500    511.3000   2.501000   0.069000    6.19000    518.4000   595.0000   4370.000   
4010.455   54.8000    8.92000    344.100    490.5000   2.522000   0.051000    5.31000    521.5000   609.7000   4370.000   
4010.303   68.8000    8.91000    326.200    476.7000   2.532000   0.035000    5.80000    365.0000   597.0000   4356.000   
4010.150   83.2000    8.90000    315.900    469.6000   2.538000   0.028000    8.08000    299.0000   553.2999   4347.000   
4009.998   83.8000    8.89000    306.800    465.3000   2.551000   0.028000    11.99000   270.8000   470.2000   4328.000   
4009.845   67.1000    8.90000    294.800    464.1000   2.571000   0.031000    15.97000   265.3000   446.6000   4338.000   
4009.693   45.1000    8.88000    285.500    465.1000   2.590000   0.034000    17.76000   279.6000   435.2000   4336.000   
4009.541   30.7000    8.90000    283.200    468.8000   2.598000   0.040000    16.81000   276.4000   436.6000   4331.000   
4009.388   24.6000    8.89000    287.700    481.2000   2.595000   0.053000    14.87000   269.3000   414.8000   4340.000   
4009.236   22.0000    8.90000    298.700    498.5000   2.589000   0.068000    12.87000   306.9000   482.5000   4318.000   
4009.083   23.0000    8.89000    311.100    503.3000   2.586000   0.071000    10.04000   517.4000   679.2000   4328.000   
4008.931   27.8000    8.91000    314.500    489.1000   2.583000   0.057000    6.30000    781.1000   710.7000   4380.000   
4008.778   34.0000    8.94000    306.700    469.2000   2.578000   0.035000    3.29000    675.4000   639.6000   4436.000   
4008.626   37.6000    8.92000    297.900    462.4000   2.568000   0.022000    2.41000    568.2999   641.1000   4455.000   
4008.474   37.3000    8.92000    299.200    467.1000   2.554000   0.021000    2.78000    568.6000   639.2000   4406.000   
4008.321   35.4000    8.91000    307.700    473.3000   2.541000   0.028000    3.67000    593.1000   643.1000   4360.000   
4008.169   34.7000    8.91000    316.500    482.2000   2.531000   0.039000    4.06000    630.2999   657.7999   4331.000   
4008.017   35.3000    8.90000    323.600    493.7000   2.529000   0.054000    3.80000    647.0000   662.7000   4285.000   
4007.864   36.0000    8.86000    327.800    503.1000   2.537000   0.066000    3.40000    631.2999   604.7999   4256.000   
4007.712   35.9000    8.87000    327.800    504.9000   2.550000   0.072000    3.17000    584.4000   569.6000   4248.000   
4007.559   36.5000    8.91000    322.200    498.8000   2.565000   0.069000    3.19000    533.2999   580.7000   4304.000   
4007.407   38.0000    8.91000    313.500    489.7000   2.576000   0.059000    3.40000    522.1000   575.2000   4340.000   
4007.254   40.8000    8.91000    306.600    479.6000   2.579000   0.047000    3.59000    559.4000   600.9000   4351.000   
4007.102   49.7000    8.92000    301.800    468.5000   2.577000   0.033000    3.55000    597.1000   657.7999   4355.000   
4006.950   66.6000    8.92000    295.900    461.5000   2.575000   0.026000    3.36000    631.2999   698.0000   4342.000   
4006.797   83.1000    8.90000    290.100    463.9000   2.577000   0.030000    3.44000    592.2000   689.1000   4274.000   
4006.645   89.2000    8.90000    289.700    472.8000   2.582000   0.040000    3.99000    591.0000   725.4000   4266.000   
4006.493   84.9000    8.89000    294.300    480.2000   2.585000   0.049000    4.89000    576.4000   682.1000   4241.000   
4006.340   80.2000    8.87000    299.100    486.5000   2.586000   0.059000    5.68000    570.2000   612.7000   4252.000   
4006.188   80.1000    8.87000    303.200    495.8000   2.588000   0.071000    5.89000    583.2999   572.2000   4266.000   
4006.035   83.0000    8.85000    305.600    501.6000   2.596000   0.079000    5.44000    530.6000   565.6000   4298.000   
4005.883   88.4000    8.87000    302.500    494.0000   2.610000   0.074000    4.67000    527.4000   579.4000   4316.000   
4005.730   97.3000    8.87000    292.400    475.6000   2.623000   0.054000    4.12000    538.2000   619.6000   4331.000   
4005.578   108.2000   8.89000    280.300    458.9000   2.624000   0.033000    3.99000    552.9000   617.6000   4344.000   
4005.426   117.6000   8.89000    273.500    450.4000   2.617000   0.019000    4.16000    554.9000   631.2999   4328.000   
4005.273   121.5000   8.87000    271.900    449.5000   2.609000   0.016000    4.38000    569.6000   612.7000   4303.000   
4005.121   116.5000   8.87000    273.600    454.7000   2.602000   0.022000    4.48000    556.7999   622.5000   4272.000   
4004.969   104.2000   8.87000    278.100    464.1000   2.598000   0.033000    4.40000    576.4000   627.4000   4235.000   
4004.816   89.7000    8.86000    285.500    480.0000   2.593000   0.052000    4.10000    608.7999   609.9000   4233.000   
4004.664   78.1000    8.84000    298.100    501.1000   2.590000   0.075000    3.51000    686.1000   637.7999   4242.000   
4004.511   69.6000    8.85000    310.300    513.6000   2.595000   0.092000    2.81000    619.4000   640.1000   4298.000   
4004.359   66.2000    8.84000    309.400    504.4000   2.613000   0.087000    2.52000    607.7999   635.2000   4338.000   
4004.207   75.7000    8.86000    293.500    476.7000   2.635000   0.060000    2.79000    575.4000   611.6000   4347.000   
4004.054   96.9000    8.89000    273.300    449.5000   2.644000   0.027000    3.93000    426.2000   492.2000   4338.000   
4003.902   117.3000   8.86000    261.400    436.2000   2.635000   0.006000    5.96000    289.3000   445.0000   4346.000   
4003.750   126.5000   8.86000    259.000    437.3000   2.622000   0.004000    8.70000    273.0000   459.8000   4333.000   
4003.597   126.7000   8.87000    261.300    447.7000   2.617000   0.016000    11.36000   300.0000   450.0000   4333.000   
4003.444   124.3000   8.87000    266.900    459.1000   2.617000   0.029000    12.89000   289.2000   475.4000   4320.000   
4003.292   123.0000   8.87000    274.000    464.7000   2.615000   0.035000    13.26000   284.3000   445.5000   4267.000   
4003.140   124.8000   8.89000    280.700    469.7000   2.606000   0.042000    13.52000   254.4000   421.3000   4333.000   
4002.987   124.5000   8.87000    289.600    484.8000   2.596000   0.060000    14.09000   257.2000   407.8000   4341.000   
4002.835   110.3000   8.87000    299.700    501.8000   2.597000   0.078000    14.02000   268.6000   441.1000   4405.000   
4002.683   81.5000    8.86000    301.900    501.6000   2.612000   0.080000    12.09000   423.5000   600.0000   4468.000   
4002.530   52.4000    8.87000    295.200    483.7000   2.623000   0.062000    8.38000    634.6000   687.2999   4513.000   
4002.378   36.3000    8.87000    288.000    467.9000   2.614000   0.038000    4.84000    711.6000   713.7000   4549.000   
4002.225   31.2000    8.87000    290.100    465.5000   2.587000   0.025000    2.83000    715.6000   709.7999   4441.000   
4002.073   28.7000    8.87000    301.000    470.0000   2.557000   0.023000    2.38000    704.9000   729.4000   4301.000   
4001.920   26.1000    8.87000    313.400    476.4000   2.532000   0.028000    2.53000    682.2999   720.5000   4352.000   
4001.768   24.7000    8.87000    325.100    488.3000   2.516000   0.042000    2.93000    653.9000   628.4000   4422.000   
4001.616   24.8000    8.85000    334.600    503.1000   2.514000   0.060000    3.40000    607.7999   584.2999   4474.000   
4001.463   25.6000    8.84000    339.000    509.1000   2.526000   0.069000    3.53000    587.2000   579.4000   4525.000   
4001.311   26.1000    8.85000    335.300    499.9000   2.541000   0.062000    3.29000    576.4000   600.0000   4579.000   
4001.159   25.3000    8.84000    325.000    480.9000   2.549000   0.041000    2.93000    599.0000   637.2000   4469.000   
4001.006   24.0000    8.85000    315.000    465.5000   2.542000   0.018000    2.76000    616.6000   680.1000   4396.000   
4000.854   24.0000    8.85000    312.800    460.8000   2.524000   0.006000    2.86000    641.5000   667.2999   4363.000   
4000.701   25.4000    8.84000    318.700    466.0000   2.502000   0.008000    3.19000    619.7999   651.4000   4372.000   
4000.549   26.8000    8.85000    328.300    478.5000   2.488000   0.022000    3.68000    563.2999   660.1000   4382.000   
4000.396   27.3000    8.84000    338.900    492.5000   2.484000   0.038000    4.31000    557.2000   670.5000   4359.000   
4000.244   27.8000    8.84000    348.400    501.5000   2.485000   0.048000    4.99000    564.7000   665.0000   4344.000   
4000.092   28.3000    8.82000    354.700    503.0000   2.486000   0.051000    5.59000    549.5000   617.6000   4351.000   
3999.939   27.1000    8.81000    355.600    499.9000   2.488000   0.051000    5.89000    536.2000   571.7999   4336.000   
3999.787   25.3000    8.82000    349.400    494.4000   2.497000   0.048000    5.72000    515.5000   583.1000   4304.000   
3999.635   25.4000    8.83000    337.900    485.7000   2.512000   0.041000    5.04000    596.0000   648.5000   4291.000   
3999.482   28.5000    8.82000    325.400    475.9000   2.526000   0.033000    3.95000    687.2999   694.1000   4327.000   
3999.330   33.6000    8.82000    316.500    473.2000   2.532000   0.032000    2.90000    699.0000   705.7999   4346.000   
3999.177   39.1000    8.83000    314.900    483.4000   2.534000   0.043000    2.34000    750.9000   728.4000   4417.000   
3999.025   44.1000    8.86000    320.900    498.9000   2.537000   0.060000    2.12000    764.7000   726.4000   4442.000   
3998.873   46.3000    8.86000    328.100    507.4000   2.544000   0.072000    2.05000    759.7999   747.5000   4423.000   
3998.720   44.3000    8.85000    329.200    506.9000   2.554000   0.078000    1.99000    800.0000   722.5000   4362.000   
3998.568   40.0000    8.86000    324.600    508.7001   2.564000   0.084000    1.93000    778.4000   688.2000   4284.000   
3998.416   36.9000    8.86000    322.300    518.2999   2.572000   0.094000    1.88000    724.5000   630.2999   4250.000   
3998.263   37.1000    8.86000    327.400    525.1000   2.576000   0.100000    1.91000    626.4000   599.0000   4254.000   
3998.110   40.5000    8.86000    332.200    520.6000   2.576000   0.098000    1.97000    647.0000   640.5000   4305.000   
3997.958   45.2000    8.87000    329.800    521.2000   2.574000   0.103000    1.96000    721.7000   688.1000   4327.000   
3997.806   48.3000    8.87000    332.000    552.4000   2.566000   0.131000    1.82000    754.4000   721.7000   4301.000   
3997.653   49.9000    9.35000    360.100    611.2999   2.547000   0.176000    1.48000    732.6000   710.7999   4401.000   
3997.501   52.3000    9.69000    420.400    669.0000   2.511000   0.215000    1.38000    737.6000   717.6000   4455.000   
3997.349   55.5000    9.67000    492.600    702.9000   2.463000   0.235000    1.55000    734.2999   680.5000   4500.000   
3997.196   56.2000    9.68000    548.800    716.6000   2.421000   0.243000    1.69000    703.7999   648.5000   4547.000   
3997.044   52.7000    9.69000    579.100    721.1000   2.394000   0.245000    1.74000    660.2999   595.1000   4655.000   
3996.891   49.5000    9.68000    589.800    721.0000   2.383000   0.245000    1.80000    601.9000   567.9000   4650.000   
3996.739   50.6000    9.67000    589.900    720.7999   2.381000   0.246000    1.84000    559.2000   547.0000   4406.000   
3996.586   54.3000    9.66000    586.500    719.2999   2.386000   0.247000    1.84000    597.0000   597.0000   4236.000   
3996.434   57.2000    9.81000    574.000    709.9000   2.402000   0.247000    1.60000    679.4000   656.2999   4318.000   
3996.282   59.2000    9.93000    545.100    694.2000   2.431000   0.245000    1.29000    719.4000   661.1000   4391.000   
3996.129   63.3000    9.90000    508.100    683.1000   2.465000   0.244000    1.15000    713.5000   687.1000   4439.000   
3995.977   69.3000    9.92000    479.700    681.2999   2.495000   0.244000    1.16000    695.0000   682.5000   4492.000   
3995.825   72.9000    9.92000    471.000    683.7999   2.507000   0.243000    1.33000    700.0000   691.2000   4519.000   
3995.672   72.3000    9.92000    479.400    679.0000   2.500000   0.232000    1.55000    683.4000   684.1000   4463.000   
3995.520   68.3000    9.80000    485.000    649.6000   2.491000   0.205000    1.86000    655.4000   628.1000   4445.000   
3995.367   61.4000    9.53000    459.000    593.9000   2.500000   0.165000    2.32000    563.1000   585.4000   4388.000   
3995.215   52.4000    9.25000    400.500    542.2999   2.529000   0.126000    2.88000    565.0000   583.1000   4317.000   
3995.062   43.2000    9.15000    347.500    522.7000   2.559000   0.104000    3.08000    600.9000   594.0000   4283.000   
3994.910   36.8000    9.12000    330.700    522.5000   2.572000   0.094000    2.73000    650.4000   668.2999   4346.000   
3994.758   34.8000    9.13000    333.500    511.4000   2.569000   0.079000    2.27000    678.2000   634.2999   4384.000   
3994.605   34.5000    9.08000    328.100    489.1000   2.563000   0.055000    2.07000    626.4000   645.5000   4402.000   
3994.453   34.6000    9.00000    317.700    475.8000   2.551000   0.035000    2.18000    645.5000   640.7000   4389.000   
3994.300   35.8000    8.99000    315.300    474.2000   2.536000   0.027000    2.40000    633.0000   651.9000   4409.000   
3994.148   38.9000    9.00000    320.200    474.7000   2.523000   0.024000    2.58000    626.4000   651.4000   4390.000   
3993.996   44.7000    8.97000    324.000    475.1000   2.513000   0.023000    2.81000    617.4000   652.4000   4366.000   
3993.843   52.5000    9.01000    325.900    477.9000   2.508000   0.029000    2.98000    625.7000   665.2999   4350.000   
3993.691   60.6000    8.97000    328.800    488.3000   2.507000   0.043000    3.17000    644.2000   649.0000   4302.000   
3993.539   64.3000    8.99000    334.300    506.7000   2.513000   0.065000    3.27000    591.1000   557.7999   4350.000   
3993.386   60.3000    8.97000    341.600    521.7999   2.526000   0.084000    3.42000    529.4000   564.0000   4422.000   
3993.234   51.7000    8.97000    343.400    519.4000   2.542000   0.084000    3.59000    517.4000   538.7999   4464.000   
3993.082   44.0000    8.99000    335.900    500.2000   2.553000   0.066000    3.67000    519.4000   562.1000   4508.000   
3992.929   43.8000    8.96000    323.800    482.2000   2.553000   0.046000    3.68000    514.5000   548.0000   4547.000   
3992.776   55.0000    8.96000    314.900    478.3000   2.548000   0.040000    3.70000    508.6000   581.5000   4605.000   
3992.624   74.7000    8.96000    315.400    487.2000   2.541000   0.050000    3.74000    535.9000   651.4000   4644.000   
3992.472   93.8000    8.95000    322.700    509.4000   2.540000   0.082000    3.78000    662.2999   737.7999   4699.000   
3992.319   104.6000   8.96000    331.800    546.5000   2.556000   0.130000    4.18000    519.4000   594.1000   4699.000   
3992.167   109.0000   8.97000    340.000    586.2999   2.590000   0.177000    5.57000    351.9000   451.4000   4689.000   
3992.015   112.8000   8.98000    346.200    611.5000   2.626000   0.207000    8.03000    279.2000   400.9000   4325.000   
3991.862   116.5000   8.97000    352.800    617.2999   2.645000   0.216000    10.77000   269.3000   429.4000   4180.000   
3991.710   116.2000   8.97000    358.400    613.7000   2.645000   0.213000    12.46000   266.6000   427.4000   4281.000   
3991.557   112.6000   8.98000    360.500    607.7999   2.639000   0.204000    12.68000   286.2000   454.9000   4347.000   
3991.405   109.3000   8.97000    358.300    590.2999   2.635000   0.184000    12.16000   315.6000   480.3000   4396.000   
3991.252   108.7000   8.99000    347.200    552.9000   2.636000   0.147000    11.59000   325.4000   507.8000   4449.000   
3991.100   110.0000   9.02000    323.200    508.4000   2.640000   0.103000    11.14000   342.1000   513.7000   4457.000   
3990.948   110.9000   9.00000    293.600    477.3000   2.646000   0.070000    10.93000   355.8000   501.9000   4440.000   
3990.795   109.6000   9.00000    271.900    467.2000   2.654000   0.055000    10.77000   355.8000   520.5000   4409.000   
3990.643   105.7000   9.01000    264.300    465.7000   2.658000   0.048000    10.52000   358.8000   494.1000   4371.000   
3990.491   103.4000   9.01000    265.200    461.9000   2.653000   0.042000    10.26000   356.8000   473.5000   4319.000   
3990.338   103.7000   9.00000    266.700    462.3000   2.644000   0.043000    10.06000   336.2000   443.1000   4347.000   
3990.186   101.6000   9.01000    269.900    474.1000   2.636000   0.055000    9.72000    314.7000   478.4000   4364.000   
3990.033   91.9000    9.00000    277.500    489.4000   2.634000   0.071000    8.94000    442.1000   602.9000   4425.000   
3989.881   77.6000    9.00000    284.600    490.8000   2.640000   0.075000    7.56000    513.7999   629.7999   4412.000   
3989.729   66.9000    9.00000    280.900    474.5000   2.653000   0.062000    6.21000    550.0000   645.0000   4454.000   
3989.576   63.7000    8.99000    265.700    456.3000   2.666000   0.044000    5.51000    540.1000   630.2999   4422.000   
3989.424   65.8000    9.00000    252.700    450.0000   2.672000   0.033000    5.42000    534.2999   637.2000   4439.000   
3989.271   69.3000    8.99000    252.500    451.7000   2.664000   0.028000    5.65000    527.4000   616.7999   4386.000   
3989.119   70.9000    8.99000    260.100    454.9000   2.645000   0.030000    5.81000    522.7000   623.5000   4355.000   
3988.966   70.1000    9.00000    268.700    465.3000   2.626000   0.040000    5.91000    514.7000   610.7000   4278.000   
3988.814   68.0000    8.99000    281.600    485.1000   2.608000   0.058000    6.00000    510.7001   615.5000   4296.000   
3988.662   65.6000    8.99000    298.200    500.7000   2.598000   0.073000    6.10000    500.9000   605.7999   4328.000   
3988.509   63.2000    8.98000    308.100    498.8000   2.596000   0.071000    6.23000    498.0000   603.9000   4372.000   
3988.357   64.2000    8.99000    305.100    482.7000   2.597000   0.055000    6.36000    485.2000   531.0000   4420.000   
3988.205   70.3000    9.00000    295.800    466.5000   2.595000   0.037000    6.42000    446.6000   590.2000   4435.000   
3988.052   75.7000    8.99000    287.500    457.4000   2.594000   0.026000    6.36000    501.9000   598.0000   4406.000   
3987.900   74.3000    9.00000    279.800    453.8000   2.600000   0.024000    6.27000    469.3000   573.7000   4400.000   
3987.748   67.6000    9.00000    272.300    454.4000   2.613000   0.027000    6.32000    470.8000   560.1000   4358.000   
3987.595   61.9000    9.00000    267.600    457.7000   2.625000   0.033000    6.45000    456.3000   557.2000   4337.000   
3987.442   60.2000    8.98000    266.300    460.0000   2.635000   0.037000    6.51000    465.0000   544.1000   4318.000   
3987.290   61.4000    9.00000    266.200    461.2000   2.641000   0.040000    6.28000    471.5000   526.2000   4272.000   
3987.138   63.9000    9.00000    266.000    462.6000   2.644000   0.043000    5.93000    455.3000   541.1000   4324.000   
3986.985   64.3000    9.00000    265.700    464.0000   2.648000   0.046000    5.53000    465.6000   513.7000   4390.000   
3986.833   62.1000    8.98000    264.800    465.9000   2.652000   0.049000    5.08000    500.0000   604.9000   4430.000   
3986.681   60.5000    9.00000    265.400    468.7000   2.652000   0.049000    4.52000    571.2000   641.1000   4474.000   
3986.528   61.2000    9.00000    269.700    469.6000   2.644000   0.047000    4.12000    560.7000   643.5000   4499.000   
3986.375   65.1000    8.99000    275.200    467.7000   2.632000   0.042000    4.18000    556.4000   646.5000   4545.000   
3986.223   71.9000    8.98000    279.600    464.2000   2.617000   0.035000    4.67000    534.6000   633.9000   4431.000   
3986.071   79.1000    9.00000    282.900    463.5000   2.604000   0.033000    5.25000    528.1000   578.4000   4325.000   
3985.918   83.7000    8.99000    285.500    466.1000   2.595000   0.035000    5.68000    500.0000   543.1000   4242.000   
3985.766   84.8000    9.00000    287.500    472.7000   2.592000   0.044000    5.76000    465.6000   538.7999   4242.000   
3985.614   85.0000    8.99000    292.400    487.6000   2.589000   0.059000    5.80000    434.9000   517.6000   4287.000   
3985.461   86.9000    8.98000    303.900    503.3000   2.587000   0.074000    6.00000    405.8000   494.1000   4333.000   
3985.309   93.4000    8.97000    313.600    503.4000   2.588000   0.075000    6.45000    395.1000   521.7000   4364.000   
3985.157   105.7000   8.98000    309.500    483.5000   2.597000   0.059000    6.83000    420.7000   541.1000   4389.000   
3985.004   118.1000   8.99000    290.300    459.2000   2.612000   0.035000    7.01000    425.4000   542.1000   4386.000   
3984.852   123.8000   9.00000    270.200    447.5000   2.624000   0.022000    7.15000    421.5000   557.2000   4435.000   
3984.699   121.6000   8.99000    261.700    448.4000   2.630000   0.020000    7.37000    417.4000   543.6000   4422.000   
3984.547   114.9000   9.00000    262.500    451.9000   2.632000   0.024000    7.61000    429.1000   564.7000   4342.000   
3984.395   106.7000   9.00000    264.800    452.9000   2.633000   0.028000    7.76000    435.2000   550.0000   4240.000   
3984.242   98.6000    8.98000    263.300    456.0000   2.638000   0.036000    7.76000    430.3000   561.1000   4211.000   
3984.090   94.2000    9.00000    262.800    470.0000   2.642000   0.053000    7.73000    425.2000   555.2999   4240.000   
3983.938   93.9000    8.98000    271.900    491.1000   2.642000   0.073000    7.78000    426.2000   549.0000   4280.000   
3983.785   93.1000    8.99000    286.500    500.9000   2.637000   0.081000    7.86000    422.5000   514.7999   4320.000   
3983.632   89.3000    8.99000    292.900    489.1000   2.635000   0.070000    7.82000    400.0000   513.7999   4372.000   
3983.480   84.8000    9.01000    285.200    467.5000   2.636000   0.049000    7.35000    457.4000   649.0000   4406.000   
3983.328   82.7000    8.99000    271.400    452.9000   2.637000   0.030000    6.34000    613.0000   660.2999   4435.000   
3983.175   82.9000    9.00000    264.000    448.7000   2.633000   0.019000    4.86000    677.2000   645.5000   4377.000   
3983.023   82.4000    8.99000    265.300    449.8000   2.622000   0.016000    3.50000    658.4000   627.1000   4305.000   
3982.871   80.5000    8.99000    272.400    453.4000   2.605000   0.018000    2.59000    676.6000   653.9000   4333.000   
3982.718   77.6000    9.00000    282.300    463.0000   2.586000   0.027000    2.20000    653.9000   631.0000   4300.000   
3982.566   73.0000    8.99000    294.000    480.7000   2.572000   0.045000    2.14000    633.9000   619.6000   4259.000   
3982.413   68.3000    9.00000    307.300    496.6000   2.567000   0.062000    2.27000    602.9000   576.6000   4264.000   
3982.261   64.2000    8.99000    315.300    495.6000   2.573000   0.063000    2.64000    528.1000   571.5000   4331.000   
3982.108   61.6000    8.99000    309.300    476.2000   2.585000   0.047000    3.65000    404.9000   489.3000   4367.000   
3981.956   62.0000    9.01000    291.100    453.3000   2.600000   0.026000    5.70000    270.8000   431.6000   4401.000   
3981.804   70.7000    8.98000    270.100    440.5000   2.618000   0.012000    9.16000    213.8000   400.9000   4450.000   
3981.651   86.3000    8.99000    255.500    435.9000   2.634000   0.004000    13.46000   206.7000   400.0000   4435.000   
3981.499   93.3000    9.00000    251.700    433.1000   2.634000   -0.004000   17.20000   207.8000   400.9000   4453.000   
3981.347   82.9000    8.98000    258.700    432.5000   2.612000   -0.014000   19.36000   192.2000   390.0000   4472.000   
3981.194   64.2000    9.00000    271.700    433.9000   2.576000   -0.020000   20.17000   185.1000   364.0000   4435.000   
3981.042   52.4000    9.00000    285.900    442.2000   2.537000   -0.014000   19.90000   218.4000   357.8000   4416.000   
3980.889   49.2000    9.00000    306.900    468.9000   2.500000   0.009000    17.85000   266.6000   427.4000   4324.000   
3980.737   47.3000    8.99000    339.100    505.1000   2.474000   0.044000    14.28000   326.4000   503.0000   4297.000   
3980.584   46.1000    9.00000    367.000    521.4000   2.470000   0.065000    10.88000   381.0000   540.1000   4307.000   
3980.432   48.4000    8.99000    370.100    506.3000   2.484000   0.057000    8.90000    410.7000   545.5000   4338.000   
3980.280   56.2000    8.99000    348.700    479.7000   2.505000   0.036000    8.14000    432.6000   560.2999   4378.000   
3980.127   64.8000    9.00000    322.500    465.4000   2.523000   0.019000    7.73000    448.5000   554.4000   4406.000   
3979.975   68.1000    9.01000    308.300    459.9000   2.532000   0.009000    7.22000    471.2000   559.2000   4424.000   
3979.823   64.9000    8.99000    305.800    455.9000   2.528000   0.003000    6.66000    471.8000   583.1000   4449.000   
3979.670   59.8000    9.01000    309.200    458.7000   2.518000   0.005000    6.19000    494.0000   595.1000   4444.000   
3979.518   56.7000    9.00000    314.400    468.9000   2.511000   0.016000    6.11000    452.4000   538.2000   4411.000   
3979.365   55.3000    9.00000    320.000    479.2000   2.513000   0.029000    6.36000    439.2000   527.4000   4347.000   
3979.213   55.4000    8.98000    323.200    480.8000   2.522000   0.034000    6.58000    445.0000   550.4000   4264.000   
3979.061   56.8000    8.99000    319.400    474.6000   2.534000   0.031000    6.43000    482.5000   595.1000   4294.000   
3978.908   57.5000    9.00000    310.300    468.0000   2.544000   0.026000    5.89000    516.5000   591.1000   4305.000   
3978.756   55.7000    8.99000    303.500    465.7000   2.550000   0.021000    5.31000    541.1000   614.7000   4346.000   
3978.604   51.5000    9.00000    304.300    464.1000   2.545000   0.014000    4.80000    558.7999   608.7000   4375.000   
3978.451   48.0000    9.01000    309.000    459.2000   2.531000   0.004000    4.40000    572.7999   631.0000   4402.000   
3978.298   47.3000    8.98000    311.900    453.9000   2.516000   -0.003000   4.10000    580.5000   617.6000   4423.000   
3978.146   48.0000    9.00000    311.900    452.9000   2.507000   -0.004000   3.84000    593.1000   628.1000   4424.000   
3977.994   47.3000    8.98000    311.500    458.4000   2.505000   0.002000    3.70000    589.2999   635.2000   4386.000   
3977.841   45.0000    9.00000    314.400    468.9000   2.505000   0.013000    3.70000    571.5000   624.7000   4348.000   
3977.689   42.9000    8.95000    324.000    479.3000   2.499000   0.021000    4.20000    492.0000   527.7000   4297.000   
3977.537   42.1000    8.94000    338.300    482.9000   2.486000   0.022000    5.10000    404.9000   537.2000   4287.000   
3977.384   42.1000    8.94000    348.600    479.2000   2.471000   0.017000    6.19000    421.5000   561.7000   4320.000   
3977.232   43.3000    8.94000    349.600    472.8000   2.464000   0.012000    6.96000    465.6000   575.4000   4352.000   
3977.079   49.3000    8.94000    342.200    468.6000   2.471000   0.013000    7.11000    468.6000   592.1000   4386.000   
3976.927   64.9000    8.95000    328.900    466.9000   2.495000   0.020000    7.01000    451.9000   592.1000   4386.000   
3976.774   87.7000    8.94000    310.000    465.5000   2.536000   0.030000    7.24000    441.1000   599.0000   4386.000   
3976.622   109.1000   8.94000    289.800    464.6000   2.581000   0.037000    7.91000    426.4000   573.5000   4389.000   
3976.470   122.4000   8.95000    276.400    464.1000   2.615000   0.041000    8.90000    375.4000   560.1000   4386.000   
3976.317   128.3000   8.93000    271.100    464.9000   2.632000   0.045000    10.13000   355.3000   484.3000   4403.000   
3976.165   130.9000   8.95000    269.200    468.2000   2.642000   0.052000    11.40000   291.1000   407.8000   4377.000   
3976.013   131.3000   8.92000    267.400    473.5000   2.652000   0.061000    12.46000   270.5000   444.5000   4351.000   
3975.860   128.1000   8.94000    266.700    477.2000   2.663000   0.065000    12.94000   280.1000   460.1000   4298.000   
3975.708   120.6000   8.92000    265.300    472.5000   2.672000   0.060000    12.98000   289.3000   456.8000   4307.000   
3975.555   111.0000   8.92000    261.400    460.2000   2.675000   0.044000    12.70000   305.8000   445.6000   4330.000   
3975.403   103.3000   8.94000    256.600    447.0000   2.670000   0.027000    12.03000   329.1000   450.9000   4372.000   
3975.250   100.0000   8.95000    251.700    438.3000   2.663000   0.016000    10.93000   342.1000   462.1000   4391.000   
3975.098   100.3000   8.94000    248.200    438.0000   2.658000   0.013000    9.69000    350.4000   461.7000   4399.000   
3974.946   103.3000   8.94000    250.000    447.1000   2.650000   0.022000    8.70000    364.7000   505.9000   4427.000   
3974.793   106.9000   8.94000    259.500    462.1000   2.639000   0.038000    8.21000    385.1000   509.8000   4405.000   
3974.641   110.4000   8.95000    271.500    476.1000   2.633000   0.055000    8.36000    346.0000   462.3000   4372.000   
3974.488   115.2000   8.94000    278.500    482.9000   2.635000   0.065000    9.39000    266.3000   444.1000   4330.000   
3974.336   120.4000   8.94000    279.500    481.0000   2.642000   0.065000    11.18000   252.9000   391.1000   4273.000   
3974.184   123.7000   8.94000    277.100    475.3000   2.646000   0.060000    12.85000   267.6000   432.3000   4302.000   
3974.031   122.2000   8.92000    273.200    469.8000   2.648000   0.054000    13.24000   301.9000   496.0000   4328.000   
3973.879   116.4000   8.95000    269.000    465.4000   2.651000   0.048000    12.16000   347.0000   497.0000   4345.000   
3973.727   110.6000   8.94000    265.800    461.1000   2.652000   0.041000    10.73000   381.3000   506.8000   4396.000   
3973.574   107.8000   8.94000    262.800    455.0000   2.652000   0.033000    9.65000    374.5000   506.7000   4386.000   
3973.422   108.0000   8.93000    260.200    450.9000   2.649000   0.027000    8.92000    392.2000   499.0000   4425.000   
3973.270   109.6000   8.95000    260.700    453.0000   2.641000   0.028000    8.38000    393.1000   528.1000   4363.000   
3973.117   110.6000   8.94000    265.600    461.5000   2.632000   0.037000    8.08000    401.9000   521.7000   4357.000   
3972.964   110.4000   8.94000    272.900    472.3000   2.627000   0.048000    8.19000    362.3000   511.6000   4334.000   
3972.812   108.7000   8.95000    278.900    476.6000   2.626000   0.053000    8.81000    338.8000   469.6000   4308.000   
3972.660   106.8000   8.94000    281.600    471.5000   2.626000   0.047000    9.76000    329.4000   468.6000   4308.000   
3972.507   109.3000   8.95000    279.700    462.7000   2.623000   0.037000    10.47000   314.7000   454.9000   4318.000   
3972.355   115.8000   8.94000    275.200    455.9000   2.621000   0.029000    10.73000   336.2000   488.2000   4347.000   
3972.203   119.9000   8.94000    270.200    452.6000   2.624000   0.025000    10.90000   287.2000   459.4000   4358.000   
3972.050   115.7000   8.95000    264.800    450.1000   2.631000   0.022000    11.32000   292.0000   439.6000   4369.000   
3971.898   106.7000   8.94000    261.200    447.1000   2.636000   0.019000    11.66000   330.6000   461.1000   4369.000   
3971.745   101.8000   8.94000    260.600    446.0000   2.633000   0.017000    11.01000   365.0000   478.4000   4347.000   
3971.593   102.8000   8.94000    262.400    449.1000   2.628000   0.022000    9.57000    381.3000   511.7001   4347.000   
3971.440   105.8000   8.95000    264.300    456.5000   2.629000   0.032000    8.38000    374.5000   519.6000   4400.000   
3971.288   109.7000   8.93000    265.500    464.0000   2.636000   0.043000    8.34000    357.8000   519.4000   4380.000   
3971.136   116.4000   8.95000    267.200    467.4000   2.644000   0.048000    9.44000    301.9000   432.0000   4313.000   
3970.983   124.7000   8.93000    268.300    466.1000   2.648000   0.047000    11.25000   253.3000   395.0000   4269.000   
3970.831   128.7000   8.94000    266.900    462.1000   2.651000   0.043000    12.79000   256.8000   448.5000   4289.000   
3970.679   125.6000   8.93000    263.300    457.5000   2.652000   0.036000    13.04000   324.7000   470.8000   4317.000   
3970.526   116.7000   8.93000    261.100    451.7000   2.650000   0.027000    11.62000   380.5000   514.7000   4354.000   
3970.374   106.7000   8.95000    261.400    445.9000   2.640000   0.017000    9.57000    408.8000   552.9000   4367.000   
3970.221   100.6000   8.94000    263.500    443.7000   2.626000   0.011000    8.21000    422.5000   571.5000   4347.000   
3970.069   99.0000    8.95000    265.800    445.3000   2.615000   0.011000    7.86000    409.8000   556.2999   4333.000   
3969.917   100.1000   8.94000    267.800    450.9000   2.612000   0.018000    8.31000    399.0000   531.2999   4339.000   
3969.764   102.5000   8.95000    270.000    457.7000   2.613000   0.028000    8.94000    384.3000   503.8000   4345.000   
3969.612   105.1000   8.94000    272.800    462.8000   2.616000   0.036000    9.52000    339.8000   470.5000   4313.000   
3969.459   106.1000   8.93000    275.800    466.8000   2.619000   0.042000    10.00000   325.4000   475.2000   4269.000   
3969.307   105.8000   8.95000    277.200    469.8000   2.624000   0.048000    10.38000   319.8000   471.5000   4262.000   
3969.154   107.1000   8.94000    275.000    471.9000   2.634000   0.053000    10.49000   339.2000   454.0000   4320.000   
3969.002   109.2000   8.94000    271.300    469.9000   2.644000   0.050000    9.87000    388.0000   512.7000   4347.000   
3968.850   109.3000   8.94000    269.900    462.7000   2.644000   0.039000    8.60000    424.5000   528.4000   4391.000   
3968.697   107.5000   8.95000    271.200    454.9000   2.631000   0.025000    7.31000    430.3000   564.7000   4380.000   
3968.545   107.1000   8.94000    273.100    448.0000   2.615000   0.014000    6.62000    460.7000   582.5000   4308.000   
3968.393   109.8000   8.94000    272.400    445.2000   2.605000   0.011000    6.57000    461.1000   572.7999   4249.000   
3968.240   114.6000   8.95000    270.300    451.3000   2.605000   0.020000    6.87000    442.7000   533.0000   4334.000   
3968.088   121.0000   8.94000    271.300    464.3000   2.610000   0.035000    7.31000    395.1000   504.9000   4449.000   
3967.936   128.7000   8.93000    277.900    474.6000   2.614000   0.046000    7.93000    362.7000   481.5000   4380.000   
3967.783   135.5000   8.92000    284.400    474.6000   2.615000   0.047000    8.60000    337.8000   447.5000   4286.000   
3967.630   139.6000   8.93000    283.700    466.7000   2.615000   0.039000    8.94000    356.3000   504.9000   4217.000   
3967.478   146.1000   8.94000    278.500    457.8000   2.614000   0.026000    8.70000    409.8000   550.0000   4234.000   
3967.326   159.7000   8.95000    275.900    451.6000   2.606000   0.015000    8.10000    417.6000   548.5000   4303.000   
3967.173   170.3000   8.94000    278.100    449.1000   2.592000   0.008000    7.78000    408.7000   550.0000   4350.000   
3967.021   163.0000   8.95000    281.400    449.6000   2.580000   0.006000    7.78000    426.4000   535.9000   4396.000   
3966.869   137.6000   8.93000    283.500    451.9000   2.573000   0.009000    7.76000    448.5000   531.2999   4424.000   
3966.716   112.0000   8.95000    286.700    457.5000   2.569000   0.015000    7.28000    452.9000   542.7000   4382.000   
3966.564   100.6000   8.94000    292.200    465.6000   2.565000   0.024000    6.60000    456.3000   539.6000   4342.000   
3966.411   103.6000   8.94000    297.900    471.4000   2.564000   0.033000    6.19000    449.5000   546.0000   4252.000   
3966.259   117.8000   8.94000    300.500    473.0000   2.570000   0.040000    6.51000    377.4000   483.1000   4196.000   
3966.106   135.9000   8.94000    295.600    470.8000   2.585000   0.042000    7.80000    271.2000   384.3000   4268.000   
3965.954   142.0000   8.95000    284.700    466.1000   2.605000   0.038000    9.52000    275.4000   457.4000   4330.000   
3965.802   125.3000   8.92000    276.500    460.5000   2.615000   0.029000    10.19000   404.9000   590.1000   4354.000   
3965.649   95.0000    8.95000    278.600    457.1000   2.602000   0.018000    8.73000    536.2000   620.5000   4357.000   
3965.497   71.1000    8.94000    287.900    456.2000   2.577000   0.011000    6.49000    553.9000   616.6000   4328.000   
3965.345   63.6000    8.95000    295.400    456.9000   2.556000   0.010000    5.01000    563.7000   612.7000   4319.000   
3965.192   66.2000    8.94000    299.100    462.3000   2.545000   0.018000    4.59000    539.2000   629.1000   4286.000   
3965.040   68.7000    8.94000    304.300    475.6000   2.542000   0.034000    4.76000    517.4000   603.9000   4362.000   
3964.887   68.7000    8.94000    312.500    490.9000   2.544000   0.050000    5.36000    464.7000   530.0000   4422.000   
3964.735   68.8000    8.92000    320.100    494.0000   2.548000   0.053000    6.32000    405.8000   482.3000   4474.000   
3964.583   70.8000    8.94000    322.600    481.6000   2.547000   0.038000    7.35000    333.3000   464.0000   4535.000   
3964.430   73.3000    8.95000    318.000    465.2000   2.540000   0.020000    8.21000    344.6000   485.2000   4586.000   
3964.278   72.6000    8.94000    309.300    457.2000   2.535000   0.009000    8.45000    406.8000   514.7000   4599.000   
3964.125   68.9000    8.93000    303.300    457.4000   2.535000   0.008000    7.76000    463.7000   566.0000   4265.000   
3963.973   67.8000    8.95000    301.600    457.3000   2.540000   0.010000    6.68000    474.7000   603.7999   4179.000   
3963.820   72.6000    8.95000    297.000    454.6000   2.554000   0.015000    6.28000    435.9000   601.9000   4200.000   
3963.668   79.6000    8.94000    285.000    452.5000   2.580000   0.021000    7.15000    396.0000   562.2999   4274.000   
3963.516   82.2000    8.94000    270.600    453.4000   2.612000   0.028000    8.96000    343.5000   472.5000   4333.000   
3963.363   78.2000    8.94000    262.400    456.5000   2.635000   0.031000    10.90000   303.9000   438.6000   4386.000   
3963.211   70.5000    8.95000    264.200    459.6000   2.634000   0.028000    12.01000   300.0000   445.0000   4441.000   
3963.059   61.2000    8.92000    276.600    461.9000   2.605000   0.019000    11.94000   327.4000   457.8000   4499.000   
3962.906   52.6000    8.94000    297.600    463.4000   2.558000   0.009000    10.95000   330.3000   463.1000   4547.000   
3962.754   47.2000    8.95000    318.400    465.4000   2.512000   0.004000    9.87000    352.4000   500.9000   4267.000   
3962.602   45.3000    8.94000    330.800    467.6000   2.484000   0.004000    9.33000    359.4000   508.7001   4154.000   
3962.449   45.5000    8.95000    335.000    468.0000   2.473000   0.003000    9.41000    330.0000   494.0000   4192.000   
3962.296   46.6000    8.94000    338.100    467.7000   2.465000   0.002000    10.08000   330.6000   494.1000   4264.000   
3962.144   48.7000    8.94000    343.200    468.5000   2.458000   0.004000    10.90000   326.4000   481.3000   4314.000   
3961.992   52.6000    8.95000    342.800    470.3000   2.464000   0.011000    11.42000   323.5000   494.1000   4320.000   
3961.839   57.3000    8.94000    332.100    469.2000   2.488000   0.017000    11.70000   319.6000   489.2000   4292.000   
3961.687   60.6000    8.94000    315.600    463.0000   2.520000   0.014000    11.90000   300.0000   445.6000   4278.000   
3961.535   60.8000    8.95000    303.400    456.7000   2.537000   0.008000    11.88000   331.0000   453.9000   4242.000   
3961.382   60.9000    8.94000    301.900    457.7000   2.535000   0.008000    11.36000   337.2000   489.3000   4255.000   
3961.229   63.7000    8.94000    307.700    464.9000   2.528000   0.016000    10.41000   343.6000   494.1000   4274.000   
3961.077   67.2000    8.95000    311.100    470.1000   2.532000   0.025000    9.56000    377.4000   519.4000   4301.000   
3960.925   67.0000    8.94000    306.700    468.8000   2.546000   0.026000    9.11000    381.5000   520.5000   4357.000   
3960.772   63.0000    8.94000    300.800    464.1000   2.556000   0.021000    8.81000    402.9000   543.1000   4391.000   
3960.620   58.8000    8.95000    299.700    460.6000   2.554000   0.014000    8.44000    416.6000   523.7000   4435.000   
3960.468   56.5000    8.94000    302.300    457.4000   2.544000   0.009000    8.06000    422.7000   533.2999   4440.000   
3960.315   54.1000    8.94000    303.200    457.2000   2.538000   0.011000    7.67000    422.5000   517.6000   4328.000   
3960.163   51.7000    8.94000    302.000    466.1000   2.540000   0.024000    7.35000    417.6000   515.6000   4259.000   
3960.011   50.6000    8.95000    304.200    480.8000   2.549000   0.041000    7.20000    394.1000   491.1000   4194.000   
3959.858   52.2000    8.94000    308.500    488.1000   2.559000   0.049000    7.31000    384.3000   502.9000   4183.000   
3959.706   56.9000    8.91000    311.200    481.4000   2.562000   0.041000    7.56000    386.2000   498.0000   4205.000   
3959.553   62.5000    8.92000    312.600    469.9000   2.550000   0.024000    7.73000    385.4000   494.1000   4239.000   
3959.401   67.0000    8.92000    314.600    464.6000   2.530000   0.012000    7.91000    371.5000   481.3000   4297.000   
3959.249   69.1000    8.92000    317.600    466.1000   2.514000   0.010000    8.25000    337.2000   476.4000   4334.000   
3959.096   68.3000    8.92000    319.700    468.0000   2.507000   0.012000    8.79000    334.3000   497.0000   4358.000   
3958.944   64.6000    8.92000    320.700    468.0000   2.505000   0.011000    9.24000    375.4000   498.0000   4318.000   
3958.792   59.9000    8.92000    322.900    467.8000   2.501000   0.011000    9.20000    385.2000   497.0000   4359.000   
3958.639   57.2000    8.94000    326.600    471.8000   2.494000   0.015000    8.72000    387.2000   506.8000   4352.000   
3958.486   57.0000    8.94000    332.200    480.2000   2.488000   0.021000    8.23000    380.3000   503.9000   4320.000   
3958.334   56.0000    8.92000    340.700    485.4000   2.480000   0.024000    8.08000    388.2000   523.2999   4258.000   
3958.182   53.1000    8.91000    349.500    485.3000   2.470000   0.024000    8.27000    368.9000   498.0000   4253.000   
3958.029   49.6000    8.92000    353.500    483.1000   2.463000   0.022000    8.66000    360.3000   501.9000   4274.000   
3957.877   46.5000    8.91000    352.600    483.3000   2.461000   0.023000    8.88000    388.2000   508.8000   4287.000   
3957.725   43.7000    8.91000    351.000    484.8000   2.464000   0.024000    8.70000    406.8000   533.6000   4321.000   
3957.572   41.6000    8.91000    350.700    485.1000   2.466000   0.025000    8.14000    422.7000   536.2000   4384.000   
3957.420   41.8000    8.91000    350.300    483.3000   2.467000   0.024000    7.58000    424.5000   539.2000   4391.000   
3957.267   46.3000    8.94000    349.000    479.5000   2.470000   0.023000    7.22000    440.1000   555.2999   4395.000   
3957.115   54.0000    8.95000    343.100    478.4000   2.481000   0.029000    7.15000    436.8000   571.5000   4401.000   
3956.962   60.3000    8.92000    329.700    482.6000   2.509000   0.042000    7.50000    390.1000   508.8000   4375.000   
3956.810   61.7000    8.92000    314.100    487.1000   2.546000   0.052000    8.23000    355.8000   475.4000   4374.000   
3956.658   59.5000    8.91000    305.300    483.8000   2.571000   0.048000    9.01000    361.7000   462.7000   4335.000   
3956.505   57.2000    8.92000    306.400    473.7000   2.566000   0.031000    9.29000    354.9000   459.2000   4269.000   
3956.353   54.4000    8.91000    312.600    466.2000   2.541000   0.016000    9.00000    340.7000   475.4000   4266.000   
3956.201   52.7000    8.92000    317.100    463.0000   2.521000   0.011000    8.64000    350.0000   471.8000   4275.000   
3956.048   60.5000    8.94000    314.200    458.1000   2.524000   0.011000    8.55000    358.2000   481.5000   4310.000   
3955.896   79.9000    8.95000    298.900    448.7000   2.552000   0.011000    8.55000    359.2000   477.4000   4313.000   
3955.743   100.8000   8.92000    274.500    439.4000   2.596000   0.010000    8.51000    378.4000   534.2999   4322.000   
3955.591   112.9000   8.94000    252.400    433.7000   2.639000   0.008000    8.53000    364.7000   437.2000   4319.000   
3955.438   115.2000   8.92000    241.500    431.4000   2.663000   0.005000    9.01000    296.0000   468.6000   4342.000   
3955.286   114.1000   8.92000    241.500    432.0000   2.663000   0.004000    9.98000    302.9000   474.5000   4377.000   
3955.134   121.8000   8.95000    245.800    435.5000   2.655000   0.006000    11.29000   275.4000   473.2000   4368.000   
3954.981   144.9000   8.93000    249.500    439.9000   2.648000   0.010000    12.66000   291.0000   480.3000   4391.000   
3954.829   171.9000   8.93000    254.700    445.4000   2.637000   0.014000    13.65000   291.1000   484.1000   4362.000   
3954.677   184.2000   8.92000    265.200    457.1000   2.617000   0.021000    14.13000   297.0000   475.4000   4306.000   
3954.524   178.1000   8.93000    282.900    470.7000   2.587000   0.027000    14.28000   282.3000   449.0000   4286.000   
3954.372   170.1000   8.95000    305.400    477.0000   2.552000   0.025000    14.37000   242.1000   443.1000   4305.000   
3954.219   170.1000   8.94000    325.300    474.7000   2.515000   0.017000    13.85000   358.8000   610.7000   4352.000   
3954.067   168.3000   8.94000    338.400    471.9000   2.483000   0.010000    12.07000   482.3000   559.7999   4386.000   
