WellName:  1API 0001  PR
Field:     PR-01
Operator:  PETROBRAS
Country:   BRA
RunNumber: 0

DEPT       CALI       GR         BIT        FFDC       NFDC       RHOB       DRHO        FCNL       NCNL       NPHI       TENS       
M          IN         GAPI       IN         CPS        CPS        G/CC       G/CC        CPS        CPS        LS         LB         
5922.008   -6.29996   0.0        8.500000   0.0        0.0        1.948198   -3.901933   0.0        0.0        0.2197     5293.274   
5921.855   -6.29996   0.0        8.500000   0.0        0.0        1.948198   -3.901933   0.0        0.0        0.2197     5309.135   
5921.703   -6.29996   0.0        8.500000   0.0        0.0        1.948198   -3.901933   0.0        0.0        0.2197     5297.544   
5921.551   -6.29996   0.0        8.500000   0.0        0.0        1.948198   -3.901933   0.0        0.0        0.2197     5285.649   
5921.398   -6.29996   0.0        8.500000   0.0        0.0        1.948198   -3.901933   0.0        0.0        0.2197     5284.124   
5921.246   -6.29996   0.0        8.500000   0.0        0.0        1.948198   -3.901933   0.0        0.0        0.2197     5281.075   
5921.094   -6.29996   0.0        8.500000   0.0        0.0        1.948198   -3.901933   0.0        0.0        0.2197     5270.095   
5920.941   -6.29996   0.0        8.500000   0.0        0.0        1.948198   -3.901933   0.0        0.0        0.2197     5268.875   
5920.789   -6.29996   0.0        8.500000   0.0        0.0        1.948198   -3.901933   0.0        0.0        0.2197     5269.484   
5920.637   -6.29996   0.0        8.500000   0.0        0.0        1.948198   -3.901933   0.0        0.0        0.2197     5278.635   
5920.484   -6.29996   0.0        8.500000   0.0        0.0        1.948198   -3.901933   0.0        0.0        0.2197     5274.060   
5920.332   -6.29996   0.0        8.500000   0.0        0.0        1.948198   -3.901933   0.0        0.0        0.2197     5279.854   
5920.180   -6.29996   0.0        8.500000   0.0        0.0        1.948198   -3.901933   0.0        0.0        0.2197     5284.734   
5920.027   -6.29996   0.0        8.500000   0.0        0.0        1.948198   -3.901933   0.0        0.0        0.2197     5283.515   
5919.875   -6.29996   0.0        8.500000   0.0        0.0        1.948198   -3.901933   0.0        0.0        0.2197     5283.515   
5919.723   -6.29996   0.0        8.500000   0.0        0.0        1.948198   -3.901933   0.0        0.0        0.2197     5290.529   
5919.570   -6.29996   0.0        8.500000   0.0        0.0        1.948198   -3.901933   0.0        0.0        0.2197     5298.460   
5919.417   -6.29996   0.0        8.500000   0.0        0.0        1.948198   -3.901933   0.0        0.0        0.2197     5286.260   
5919.265   -6.29996   0.0        8.500000   0.0        0.0        1.948198   -3.901933   0.0        0.0        0.2197     5286.564   
5919.112   -6.29996   0.0        8.500000   0.0        0.0        1.948198   -3.901933   0.0        0.0        0.2197     5287.175   
5918.960   -6.29996   0.0        8.500000   0.0        0.0        1.948198   -3.901933   0.0        0.0        0.2197     5292.055   
5918.808   -6.29996   0.0        8.500000   0.0        0.0        1.948198   -3.901933   0.0        0.0        0.2197     5285.955   
5918.655   -6.29996   0.0        8.500000   0.0        0.0        1.948198   -3.901933   0.0        0.0        0.2197     5291.444   
5918.503   -6.29996   0.0        8.500000   0.0        0.0        1.948198   -3.901933   0.0        0.0        0.2197     5298.460   
5918.351   -6.29996   0.0        8.500000   0.0        0.0        1.948198   -3.901933   0.0        0.0        0.2197     5312.795   
5918.198   -6.29996   0.0        8.500000   0.0        0.0        1.948198   -3.901933   0.0        0.0        0.2197     5360.984   
5918.046   -6.29996   0.0        8.500000   0.0        0.0        1.948198   -3.901933   0.0        0.0        0.2197     5398.805   
5917.894   -6.29996   0.0        8.500000   0.0        0.0        1.948198   -3.901933   0.0        0.0        0.2197     5425.645   
5917.741   -6.29996   0.0        8.500000   0.0        0.0        1.948198   -3.901933   0.0        0.0        0.2197     5526.904   
5917.589   -6.29996   0.0        8.500000   0.0        0.0        1.948198   -3.901933   0.0        0.0        0.2197     5512.875   
5917.437   -6.29996   0.0        8.500000   0.0        0.0        1.948198   -3.901933   0.0        0.0        0.2197     5543.375   
5917.284   -6.29996   0.0        8.500000   0.0        0.0        1.948198   -3.901933   0.0        0.0        0.2197     5574.484   
5917.132   -6.29996   0.0        8.500000   0.0        0.0        1.948198   -3.901933   0.0        0.0        0.2197     5604.375   
5916.979   -6.29996   0.0        8.500000   0.0        0.0        1.948198   -3.901933   0.0        0.0        0.2197     5640.975   
5916.826   -6.29996   0.0        8.500000   0.0        0.0        1.948198   -3.901933   0.0        0.0        0.2197     5678.795   
5916.674   -6.29996   0.0        8.500000   0.0        0.0        1.948198   -3.901933   0.0        0.0        0.2197     5732.475   
5916.521   -6.29996   0.0        8.500000   0.0        0.0        1.948198   -3.901933   0.0        0.0        0.2197     5787.375   
5916.369   -6.29996   0.0        8.500000   0.0        0.0        1.948198   -3.901933   0.0        0.0        0.2197     5819.704   
5916.217   -6.29996   0.0        8.500000   0.0        0.0        1.948198   -3.901933   0.0        0.0        0.2197     5849.595   
5916.064   -6.29996   0.0        8.500000   0.0        0.0        1.948198   -3.901933   0.0        0.0        0.2197     5884.364   
5915.912   -6.29996   0.0        8.500000   0.0        0.0        1.948198   -3.901933   0.0        0.0        0.2197     5900.225   
5915.760   -6.29996   0.0        8.500000   0.0        0.0        1.948198   -3.901933   0.0        0.0        0.2197     5963.055   
5915.607   -6.29996   0.0        8.500000   0.0        0.0        1.948198   -3.901933   0.0        0.0        0.2197     5988.369   
5915.455   -6.29996   0.0        8.500000   0.0        0.0        1.948198   -3.901933   0.0        0.0        0.2197     6026.495   
5915.303   -6.29996   0.0        8.500000   0.0        0.0        2.854966   -3.901933   0.0        0.0        0.2197     6065.535   
5915.150   -6.29996   0.0        8.500000   0.0        54.7806    3.829720   -0.593390   0.0        0.0        0.2197     6103.354   
5914.998   -6.29996   0.0        8.500000   33.179     154.5309   3.788300   -0.436082   0.0        0.0        0.2197     6138.734   
5914.846   7.59323    0.0        8.500000   93.120     276.8868   3.063058   -0.160299   0.0        0.0        -2.8677    6161.915   
5914.693   7.58849    0.0        8.500000   166.750    376.7300   2.844076   -0.022237   0.0        0.0        -2.8668    6189.364   
5914.541   7.58591    0.0        8.500000   226.819    429.9642   2.697361   0.025520    0.0        0.0        -2.8664    6198.515   
5914.389   7.58591    0.0        8.500000   260.425    428.0496   2.608191   -0.005776   0.0        0.0        -2.8664    6200.345   
5914.236   7.59323    0.0        8.500000   261.095    425.3651   2.573154   -0.011488   0.0        0.0        -2.8677    6193.939   
5914.083   7.58360    0.0        8.500000   262.064    425.0457   2.570255   -0.012851   0.0        0.0        -2.8660    6197.295   
5913.931   7.58591    0.0        8.500000   262.591    427.1364   2.571502   -0.009196   0.0        0.0        -2.8664    6251.584   
5913.778   7.58360    0.0        8.500000   263.037    429.9069   2.574938   -0.004194   0.0        0.0        -2.8660    6286.354   
5913.626   7.58074    0.0        8.500000   262.157    430.3320   2.578208   -0.002705   0.0        0.0        -2.8655    6272.324   
5913.474   7.58591    0.0        8.500000   262.155    431.4920   2.578816   -0.000480   0.0        0.0        -2.8664    6246.095   
5913.321   7.58074    0.0        8.500000   263.199    430.5598   2.576717   -0.003060   0.0        0.0        -2.8655    6249.755   
5913.169   7.58074    0.0        8.500000   264.271    431.2966   2.574008   -0.002461   0.0        0.0        -2.8655    6193.635   
5913.017   7.57858    0.0        8.500000   265.337    431.8906   2.572637   -0.002128   0.0        0.0        -2.8652    6178.385   
5912.864   7.57858    0.0        8.500000   265.418    432.0867   2.572865   -0.001814   0.0        0.0        -2.8652    6174.115   
5912.712   7.58074    0.0        8.500000   263.203    430.0237   2.574462   -0.004094   0.0        0.0        -2.8655    6189.364   
5912.560   7.57858    0.0        8.500000   262.389    429.4529   2.575219   -0.004571   0.0        0.0        -2.8652    6189.364   
5912.407   7.58074    0.0        8.500000   261.819    427.4821   2.574943   -0.007939   0.0        0.0        100.4975   6194.244   
5912.255   7.58074    0.0        8.500000   261.194    427.0806   2.574715   -0.008239   0.0        83.7945    100.4975   6171.064   
5912.103   7.57858    0.0        8.500000   261.516    427.2912   2.576056   -0.008077   86.689     238.3426   100.4983   6230.234   
5911.950   7.57298    0.0        8.500000   261.370    429.5076   2.580001   -0.003689   243.691    425.0930   20.3743    6273.544   
5911.798   7.57858    0.0        8.500000   260.261    431.5072   2.585395   0.000997    435.271    578.4017   10.8744    6246.095   
5911.646   7.58074    0.0        8.500000   260.523    433.5576   2.588016   0.004715    592.520    662.9567   6.3559     6262.564   
5911.492   7.58074    0.0        8.500000   261.557    433.7357   2.585930   0.004262    680.047    664.2245   4.1230     6319.295   
5911.340   7.59747    0.0        8.500000   262.642    432.2145   2.579749   0.000533    681.633    664.0530   3.3643     6363.215   
5911.188   7.61951    0.0        8.500000   264.316    429.8049   2.572793   -0.005358   684.678    665.2416   3.2796     6399.510   
5911.035   7.68844    0.0        8.500000   264.584    428.4748   2.568815   -0.008122   686.735    662.9177   3.1179     6437.939   
5910.883   7.77093    0.0        8.500000   264.404    428.5292   2.567772   -0.007880   689.101    660.1676   2.9328     6466.305   
5910.730   7.79868    0.0        8.500000   264.759    428.2974   2.567182   -0.008596   691.785    659.6530   2.8413     6549.875   
5910.578   7.80562    0.0        8.500000   265.525    429.3119   2.567066   -0.007218   692.693    660.3933   2.8272     6534.015   
5910.426   7.81880    0.0        8.500000   265.122    429.5251   2.569201   -0.006504   691.152    660.8807   2.8641     6412.624   
5910.273   7.82445    4.4680     8.500000   263.571    429.9651   2.574149   -0.004485   688.843    662.7841   2.9450     6221.084   
5910.121   7.82445    12.8131    8.500000   261.519    430.6376   2.579696   -0.001632   686.651    664.4961   3.0379     6102.744   
5909.969   7.81760    23.0541    8.500000   260.487    430.3228   2.582567   -0.001446   685.528    665.8467   3.1113     6043.575   
5909.816   7.82281    31.4214    8.500000   259.507    428.2134   2.582936   -0.004755   686.349    668.0527   3.1497     6030.765   
5909.664   7.83034    36.1124    8.500000   258.709    427.2939   2.582875   -0.005917   686.514    669.3545   3.1478     6070.415   
5909.512   7.82959    36.8562    8.500000   258.648    427.0990   2.580423   -0.006245   688.193    668.3435   3.1112     6110.064   
5909.359   7.83198    37.9545    8.500000   260.470    425.1638   2.574686   -0.011400   688.425    666.6642   3.0674     6145.444   
5909.207   7.83198    38.3224    8.500000   262.523    425.5370   2.567901   -0.012244   687.997    666.2881   3.0671     6166.795   
5909.055   7.83198    37.9024    8.500000   264.842    425.7578   2.565145   -0.013574   686.606    666.7296   3.0919     6177.164   
5908.901   7.83198    37.1219    8.500000   264.569    428.4905   2.568933   -0.008080   685.643    666.2249   3.1094     6168.015   
5908.749   7.83198    36.5770    8.500000   263.373    431.9759   2.577770   -0.000479   683.586    664.1246   3.0919     6151.544   
5908.597   7.81880    37.0106    8.500000   262.248    435.0487   2.583812   0.006234    683.075    660.9792   3.0543     6133.244   
5908.444   7.83491    37.4430    8.500000   261.897    432.6960   2.583908   0.002019    681.832    657.5262   2.9969     6126.535   
5908.292   7.83198    37.0724    8.500000   261.523    430.4229   2.581040   -0.002046   681.164    657.3970   3.0081     6125.314   
5908.140   7.83491    36.7858    8.500000   261.026    428.7569   2.580265   -0.004873   681.245    659.9818   3.0558     6128.975   
5907.987   7.83198    36.8720    8.500000   259.742    428.4116   2.581719   -0.004553   681.464    662.4075   3.1194     6135.075   
5907.835   7.82026    36.9635    8.500000   259.936    429.6094   2.582320   -0.002395   681.446    664.5574   3.1906     6145.750   
5907.683   7.83198    36.8477    8.500000   262.674    431.8954   2.578502   -0.000103   681.046    666.6846   3.2262     6147.274   
5907.530   7.83491    35.9629    8.500000   267.891    435.1403   2.569540   0.002153    681.182    666.7552   3.2276     6155.510   
5907.378   7.85835    35.2530    8.500000   275.927    440.2908   2.558341   0.005972    681.710    665.4011   3.1549     6144.225   
5907.226   8.05462    35.5288    8.500000   283.963    447.4448   2.548507   0.013557    683.669    663.3236   2.8889     6143.005   
5907.073   8.05462    36.3693    8.500000   289.449    451.7886   2.540805   0.017717    684.978    660.9524   2.8102     6173.810   
5906.921   8.06927    37.0792    8.500000   291.284    450.5841   2.535323   0.014248    686.325    660.3646   2.7609     6179.604   
5906.769   8.08392    37.6016    8.500000   288.190    445.4352   2.533195   0.006883    686.596    661.5068   2.7466     6180.824   
5906.616   8.09857    37.5306    8.500000   283.041    438.5049   2.534552   -0.002473   686.518    661.4484   2.7333     6182.655   
5906.464   8.08245    37.5896    8.500000   278.533    433.9605   2.538059   -0.007874   686.616    660.3436   2.7112     6157.035   
5906.312   8.09857    37.1984    8.500000   275.181    431.5585   2.543004   -0.010043   687.970    657.9401   2.6476     6145.444   
5906.158   8.08245    37.2711    8.500000   273.282    431.7827   2.547318   -0.008229   688.133    656.8282   2.6299     6147.274   
5906.006   8.09857    37.2794    8.500000   272.884    431.7644   2.550758   -0.007974   686.906    656.3685   2.6439     6152.765   
5905.854   8.08245    37.2097    8.500000   275.668    438.5188   2.552745   0.002827    684.621    658.7134   2.7334     6210.715   
5905.701   8.09857    37.3332    8.500000   283.138    448.8203   2.550274   0.016674    683.234    661.9742   2.8234     6184.180   
5905.549   8.08392    36.9245    8.500000   297.224    463.9428   2.538188   0.034360    684.090    666.9033   2.9203     6202.784   
5905.396   8.13519    36.3850    8.500000   320.055    483.3159   2.513188   0.053380    687.041    670.9686   2.9426     6176.555   
5905.244   8.15716    36.1088    8.500000   357.454    511.4788   2.440150   0.078104    689.609    677.1769   3.0199     6206.444   
5905.092   8.18645    36.8995    8.500000   471.293    537.9121   2.292548   0.064501    691.150    684.9800   3.1333     6200.955   
5904.939   8.18792    37.2110    8.500000   645.039    563.5642   2.098457   0.040292    694.044    693.2555   3.2528     6200.955   
5904.787   8.21575    37.9339    8.500000   838.270    575.6284   1.921031   0.005439    701.326    702.1134   3.2421     6224.135   
5904.635   8.21575    37.3609    8.500000   989.293    577.3235   1.793087   -0.025233   716.401    711.1384   3.0751     6250.364   
5904.482   8.21575    36.9670    8.500000   1069.396   573.1278   1.726710   -0.046820   740.882    719.3259   2.7179     6200.345   
5904.330   8.24065    36.3160    8.500000   1074.537   573.4243   1.706175   -0.047350   773.625    726.0078   2.2997     6194.244   
5904.178   8.24504    36.5953    8.500000   1075.306   572.3425   1.705933   -0.049053   810.975    735.5426   1.9262     6206.444   
5904.025   8.24504    36.9971    8.500000   1073.983   575.8105   1.712957   -0.043815   863.374    753.6117   1.5896     6182.655   
5903.873   8.24504    37.4406    8.500000   1057.128   579.6414   1.738202   -0.035174   944.098    790.2791   1.2707     6173.505   
5903.721   8.26701    37.2630    8.500000   955.872    563.9879   1.800699   -0.037679   1060.697   847.6615   0.9691     6208.580   
5903.567   8.27434    37.2815    8.500000   772.750    530.5352   1.921582   -0.045718   1173.253   897.6335   0.7168     6221.694   
5903.415   8.20110    36.8350    8.500000   553.947    487.4448   2.108734   -0.049207   1243.962   916.7754   0.5506     6191.805   
5903.263   8.20110    36.5911    8.500000   372.563    451.9783   2.331468   -0.032376   1263.508   906.9802   0.4360     6192.415   
5903.110   8.20110    37.7810    8.500000   272.686    432.5068   2.506556   -0.006408   1248.829   894.1451   0.4135     6202.784   
5902.958   8.20110    38.7610    8.500000   258.340    433.4587   2.580826   0.006209    1231.368   893.8518   0.4626     6173.810   
5902.806   8.20110    38.5787    8.500000   260.758    431.3950   2.583420   0.000403    1237.453   913.3765   0.5326     6157.645   
5902.653   8.20110    36.9804    8.500000   263.743    427.5870   2.570460   -0.009200   1249.393   931.5397   0.5796     6169.845   
5902.501   8.18645    33.8701    8.500000   264.300    423.7204   2.561509   -0.017128   1252.756   934.3599   0.5937     6185.704   
5902.349   8.20110    30.4214    8.500000   265.148    424.3672   2.558124   -0.016508   1248.317   927.0884   0.5846     6154.899   
5902.196   8.20110    29.4044    8.500000   265.941    425.0042   2.556057   -0.015864   1226.885   914.6935   0.6079     6177.164   
5902.044   8.20110    29.3036    8.500000   267.375    424.8906   2.552668   -0.017162   1189.589   899.5461   0.6725     6188.755   
5901.892   8.20110    29.5432    8.500000   267.726    423.4130   2.548115   -0.020303   1149.762   884.3663   0.7564     6178.385   
5901.739   8.20110    29.0083    8.500000   269.656    423.3839   2.545905   -0.021794   1118.048   871.6462   0.8258     6194.244   
5901.587   8.20110    30.0436    8.500000   268.759    424.7357   2.551126   -0.018492   1100.831   862.8972   0.8711     6214.984   
5901.435   8.20110    32.4725    8.500000   266.835    430.1347   2.563486   -0.006620   1093.836   862.5679   0.9053     6203.395   
5901.282   8.20110    34.2323    8.500000   264.672    433.7428   2.576075   0.001912    1092.131   866.1760   0.9323     6177.164   
5901.130   8.21575    33.5517    8.500000   263.281    435.7184   2.583579   0.006721    1089.323   864.7882   0.9328     6177.774   
5900.977   8.20110    30.6480    8.500000   261.463    433.4003   2.584106   0.003695    1080.521   854.7219   0.9170     6235.725   
5900.824   8.20110    27.5146    8.500000   261.105    428.8239   2.579994   -0.004803   1069.345   839.0985   0.8864     6292.455   
5900.672   8.20110    28.7721    8.500000   261.472    427.6559   2.580423   -0.007338   1065.121   834.2251   0.8430     6333.324   
5900.520   8.20110    33.6012    8.500000   264.806    440.6660   2.591851   0.014896    1071.823   826.2384   0.8118     6357.420   
5900.367   8.20110    39.7856    8.500000   272.013    463.5201   2.604949   0.051319    1059.447   823.5662   0.8316     6337.595   
5900.215   8.18645    47.5612    8.500000   282.753    480.3029   2.606859   0.072976    1037.329   818.1910   0.9533     6189.975   
5900.062   8.20110    54.4931    8.500000   288.863    483.1598   2.594515   0.073604    994.827    815.3424   1.1629     6185.095   
5899.910   8.20110    59.1540    8.500000   291.407    473.0873   2.575333   0.054440    952.020    815.5311   1.4653     6131.415   
5899.758   8.18645    61.2046    8.500000   288.358    458.2887   2.561301   0.030279    923.505    825.2966   1.7394     6143.005   
5899.605   8.20110    60.4949    8.500000   284.889    454.5592   2.563211   0.025944    913.900    821.7333   1.8868     6117.995   
5899.453   8.20110    58.3169    8.500000   287.774    470.4036   2.570981   0.052246    889.301    808.1678   1.9372     6105.489   
5899.301   8.18645    57.6462    8.500000   311.088    501.7161   2.566629   0.089938    865.248    782.9331   1.9525     6136.295   
5899.148   8.20110    58.2953    8.500000   350.652    546.8397   2.544713   0.137191    837.900    757.6339   1.9457     6197.295   
5898.996   8.20110    57.7056    8.500000   389.292    579.7323   2.514830   0.164575    812.081    738.6572   1.9788     6234.505   
5898.844   8.27434    55.2042    8.500000   406.701    582.8428   2.488572   0.160257    799.115    729.2653   1.9796     6259.515   
5898.691   8.33293    50.6105    8.500000   399.232    564.1385   2.477725   0.137003    794.615    727.9617   1.9846     6260.734   
5898.539   8.39152    43.0493    8.500000   379.027    544.0006   2.484268   0.117339    796.431    732.6096   1.9751     6226.575   
5898.387   8.42082    34.9291    8.500000   369.339    542.7064   2.497808   0.120546    806.710    740.4232   1.9629     6194.244   
5898.233   8.40617    29.4743    8.500000   381.305    565.0380   2.505837   0.147501    821.388    754.6481   1.9781     6182.655   
5898.081   8.40617    26.3101    8.500000   400.915    590.7422   2.503768   0.174245    834.515    769.1736   1.9867     6120.739   
5897.929   8.42081    25.2867    8.500000   414.799    601.8809   2.497286   0.182881    845.596    776.9403   1.9539     6155.814   
5897.776   8.42081    25.3133    8.500000   417.859    604.4590   2.493611   0.184945    850.173    775.5383   1.9032     6197.295   
5897.624   8.43546    24.4235    8.500000   414.069    600.4387   2.495409   0.181249    847.326    769.8431   1.8411     6166.489   
5897.472   8.43546    23.4388    8.500000   411.237    600.9349   2.496536   0.183305    844.704    761.9554   1.7774     6213.155   
5897.319   8.45011    22.5017    8.500000   419.430    606.7435   2.492485   0.187311    845.196    755.1779   1.6868     6266.225   
5897.167   8.46476    23.0671    8.500000   429.657    614.5555   2.484250   0.193071    853.320    753.7073   1.5929     6267.140   
5897.015   8.46476    23.5829    8.500000   430.163    608.8353   2.480083   0.185108    869.854    761.5056   1.5111     6231.455   
5896.862   8.46476    23.4141    8.500000   415.930    594.9794   2.486546   0.172803    896.162    776.3297   1.4235     6179.300   
5896.710   8.46476    21.6970    8.500000   393.024    577.5231   2.504426   0.159513    930.806    794.5647   1.3127     6140.564   
5896.558   8.46476    19.6758    8.500000   369.721    561.5328   2.524584   0.148521    968.153    810.5485   1.1777     6135.075   
5896.405   8.46476    17.0636    8.500000   356.312    550.4255   2.537445   0.139393    1004.683   821.9080   1.0351     6196.685   
5896.253   8.48123    15.7359    8.500000   351.831    544.7155   2.538177   0.133303    1031.487   826.4633   0.9080     6228.404   
5896.101   8.46476    15.4428    8.500000   350.560    534.9579   2.527652   0.119087    1041.397   823.8612   0.8327     6281.475   
5895.948   8.47940    15.2711    8.500000   351.684    523.8851   2.512914   0.101162    1037.777   814.6741   0.7741     6330.274   
5895.796   8.49771    14.7646    8.500000   358.303    527.4702   2.497045   0.103073    1031.854   803.6661   0.7330     6360.774   
5895.643   8.49405    14.2240    8.500000   385.918    550.4319   2.472592   0.123453    1025.230   797.5187   0.7173     6393.104   
5895.490   8.50870    14.1238    8.500000   430.709    580.8572   2.437633   0.145974    1024.399   795.9650   0.6983     6340.645   
5895.338   8.50870    14.2701    8.500000   473.898    609.6365   2.404373   0.166845    1028.891   794.8292   0.6744     6226.575   
5895.186   8.52334    14.5002    8.500000   501.594    627.0963   2.385199   0.178832    1031.482   792.7980   0.6526     6147.274   
5895.033   8.52335    13.6386    8.500000   503.414    629.6178   2.386351   0.181425    1034.909   797.9453   0.6575     6114.335   
5894.881   8.53799    12.4141    8.500000   487.374    629.0914   2.401805   0.187204    1048.284   810.8196   0.6679     6069.805   
5894.729   8.52335    12.0788    8.500000   479.249    630.4866   2.413295   0.192393    1068.233   827.9619   0.6657     6056.385   
5894.576   8.55264    12.4385    8.500000   482.580    628.7798   2.410456   0.188771    1098.460   841.5792   0.6011     6161.305   
5894.424   8.55264    13.4121    8.500000   487.832    625.5740   2.399470   0.182382    1133.676   851.6213   0.5237     6224.135   
5894.271   8.53799    14.4470    8.500000   493.975    624.4083   2.389353   0.178340    1144.330   851.3380   0.5122     6265.005   
5894.119   8.55264    14.9237    8.500000   497.515    624.5764   2.382832   0.177137    1101.154   839.0585   0.6058     6294.284   
5893.967   8.56363    15.5635    8.500000   499.098    623.8129   2.378068   0.175490    1004.105   794.8845   0.7765     6313.500   
5893.814   8.55264    16.8789    8.500000   504.471    625.4967   2.368878   0.175577    894.823    728.2687   0.9178     6327.225   
5893.662   8.56729    17.7030    8.500000   520.631    629.2966   2.343918   0.174283    817.583    666.0513   0.9625     6335.765   
5893.510   8.56729    18.4384    8.500000   563.189    636.6466   2.298460   0.168179    790.592    644.4629   0.9870     6330.274   
5893.357   8.58194    18.7241    8.500000   610.380    639.2383   2.246359   0.155457    799.329    659.5076   1.0611     6307.095   
5893.205   8.58194    18.8045    8.500000   627.587    626.1050   2.214785   0.132747    814.904    688.9640   1.1846     6241.215   
5893.052   8.59659    19.0351    8.500000   586.768    593.7766   2.233860   0.102371    820.240    703.5897   1.2692     6181.435   
5892.899   8.58194    19.7564    8.500000   502.547    573.8013   2.310638   0.105049    822.998    705.2286   1.3131     6137.515   
5892.747   8.56730    19.7256    8.500000   432.638    572.9832   2.403729   0.133802    822.714    709.3030   1.3711     6114.335   
5892.595   8.58194    18.9491    8.500000   418.807    592.8041   2.456757   0.168400    818.212    716.9282   1.4770     6115.555   
5892.442   8.58194    18.3644    8.500000   447.810    622.9561   2.456635   0.196023    808.590    722.9646   1.5990     6141.784   
5892.290   8.59659    19.5424    8.500000   484.752    644.0455   2.431564   0.207697    797.148    716.5856   1.6590     6191.805   
5892.138   8.59659    23.3114    8.500000   502.320    648.4882   2.413606   0.206265    785.643    706.1923   1.6600     6223.220   
5891.985   8.59659    27.6645    8.500000   502.677    653.7715   2.408785   0.212829    780.143    697.8596   1.6489     6254.635   
5891.833   8.61124    29.4716    8.500000   507.799    655.8135   2.406269   0.213380    788.366    707.5698   1.6219     6253.415   
5891.681   8.62589    27.2712    8.500000   505.441    647.8567   2.401269   0.204223    812.577    722.6245   1.5975     6304.350   
5891.528   8.62589    23.6581    8.500000   502.823    642.9108   2.392921   0.198926    823.859    735.8033   1.6360     6295.505   
5891.376   8.61124    20.3610    8.500000   512.883    639.2319   2.375530   0.190225    813.161    739.8906   1.8093     6237.555   
5891.224   8.62955    19.8447    8.500000   530.378    638.2274   2.348141   0.182224    784.096    737.1663   2.0823     6153.375   
5891.071   8.63614    21.4008    8.500000   549.129    633.1394   2.319288   0.168665    752.209    729.8148   2.3969     6098.475   
5890.919   8.62955    24.8927    8.500000   559.351    627.7242   2.300296   0.157882    733.213    723.5062   2.5799     6066.449   
5890.767   8.64053    28.5150    8.500000   550.668    618.6562   2.301001   0.148982    727.662    711.2479   2.5220     6075.904   
5890.614   8.65518    31.5865    8.500000   535.323    619.7671   2.317385   0.156111    722.710    696.1346   2.3517     6082.005   
5890.462   8.64053    33.5109    8.500000   529.234    628.3667   2.336129   0.169787    708.118    673.9196   2.2671     6157.035   
5890.309   8.64053    33.6484    8.500000   525.942    633.0574   2.346069   0.177179    671.514    642.9005   2.3301     6204.005   
5890.156   8.66982    31.6131    8.500000   521.299    625.9556   2.333697   0.169627    622.150    608.5194   2.5996     6242.435   
5890.004   8.64602    28.3534    8.500000   549.057    617.2994   2.290576   0.147753    576.014    585.8676   3.1641     6258.295   
5889.852   8.68447    24.7901    8.500000   592.169    610.4331   2.230431   0.123404    553.499    581.9688   3.7264     6235.725   
5889.699   8.66982    22.1931    8.500000   637.246    613.3162   2.183238   0.112637    557.907    600.1272   4.1247     6174.725   
5889.547   8.66983    21.6351    8.500000   661.958    624.7101   2.163446   0.120246    580.806    626.3927   4.3235     6173.199   
5889.395   8.68447    22.4036    8.500000   664.349    631.3419   2.169121   0.128255    592.578    645.5914   4.4749     6172.895   
5889.242   8.67898    23.6019    8.500000   644.633    632.8802   2.183843   0.136285    594.587    655.0115   4.7132     6232.675   
5889.090   8.66983    24.1302    8.500000   641.689    634.2791   2.194097   0.139024    586.399    655.2126   4.8990     6230.234   
5888.938   8.68447    25.6651    8.500000   642.846    637.4894   2.199109   0.142837    577.718    644.0293   4.8527     6175.944   
5888.785   8.68447    28.6486    8.500000   640.744    641.9324   2.209969   0.149232    567.256    622.1334   4.5248     6123.484   
5888.633   8.69912    30.6903    8.500000   622.925    642.6814   2.222980   0.155833    557.937    593.2789   4.0892     6123.484   
5888.480   8.69912    30.1723    8.500000   614.823    635.4755   2.229690   0.149129    538.438    566.3649   3.9769     6123.484   
5888.328   8.69912    27.5177    8.500000   601.950    622.5812   2.209988   0.136415    503.322    544.4304   4.5181     6108.234   
5888.176   8.71377    23.3741    8.500000   642.498    606.8938   2.145618   0.102297    451.935    520.8439   5.6847     6113.725   
5888.023   8.71194    20.5524    8.500000   727.088    593.8757   2.039763   0.059663    394.828    490.5812   7.1945     6158.255   
5887.871   8.72842    20.2747    8.500000   837.885    585.1268   1.927458   0.019055    344.593    456.7693   8.4232     6151.850   
5887.718   8.72842    21.3792    8.500000   925.781    576.8073   1.836644   -0.012714   311.271    419.5884   8.9272     6146.055   
5887.565   8.72842    22.8738    8.500000   989.030    572.2362   1.783249   -0.032494   292.247    388.3909   8.8521     6153.069   
5887.413   8.71377    24.0281    8.500000   995.036    570.0487   1.763527   -0.036869   283.826    375.4466   8.7979     6195.465   
5887.261   8.74306    25.1269    8.500000   997.476    571.1613   1.761257   -0.035748   287.345    384.5773   8.8279     6254.024   
5887.108   8.72842    25.7185    8.500000   1001.078   573.2428   1.762018   -0.033461   314.905    418.9439   8.7396     6288.795   
5886.956   8.72842    26.9514    8.500000   1004.732   577.1925   1.765851   -0.028514   358.331    468.5369   8.2891     6288.185   
5886.804   8.74306    29.1937    8.500000   1004.121   583.3073   1.783071   -0.019684   407.587    514.7382   7.6142     6284.524   
5886.651   8.74306    33.6341    8.500000   962.935    591.7827   1.829981   0.000607    444.992    545.9255   6.9849     6160.694   
5886.499   8.75771    37.5378    8.500000   862.333    592.6195   1.918609   0.023825    464.547    559.6895   6.6038     6116.164   
5886.347   8.74307    41.0707    8.500000   718.781    585.6119   2.044271   0.050378    465.966    560.7950   6.4860     6143.615   
5886.194   8.75771    42.3946    8.500000   588.148    580.4656   2.184181   0.083164    465.054    558.6744   6.4049     6178.385   
5886.042   8.71377    41.1864    8.500000   502.366    583.8829   2.296239   0.119516    463.136    552.3923   6.3296     6184.484   
5885.890   8.68447    39.1935    8.500000   485.759    597.7461   2.345563   0.145626    459.631    545.0234   6.2717     6238.164   
5885.737   8.68447    37.4027    8.500000   514.155    612.5347   2.333623   0.154473    461.399    548.4799   6.1593     6275.069   
5885.585   8.72842    35.4910    8.500000   552.858    618.5621   2.291111   0.148062    480.680    561.5715   5.8356     6244.265   
5885.433   8.74306    34.3848    8.500000   581.752    611.3252   2.247472   0.128156    516.342    589.8435   5.3243     6207.055   
5885.280   8.76137    36.8034    8.500000   593.775    602.5154   2.226107   0.112072    577.531    638.6392   4.6172     6138.734   
5885.128   8.75771    40.3361    8.500000   572.479    594.8567   2.238875   0.108799    658.656    694.0011   3.7971     6092.375   
5884.975   8.75771    44.7963    8.500000   526.969    580.3212   2.277548   0.104906    734.294    742.4535   3.0512     6099.084   
5884.822   8.75771    47.5256    8.500000   465.145    546.9178   2.330008   0.080847    791.287    778.5382   2.5622     6177.164   
5884.670   8.77236    48.3792    8.500000   393.309    504.6885   2.392840   0.047958    825.833    793.2510   2.2928     6165.575   
5884.518   8.66983    47.4776    8.500000   330.167    466.0931   2.465544   0.017179    832.694    794.5962   2.2619     6155.204   
5884.365   8.62589    48.1991    8.500000   291.517    456.6754   2.537332   0.025187    830.915    797.4834   2.3132     6172.895   
5884.213   8.61307    48.0197    8.500000   288.059    483.3483   2.578202   0.074483    828.530    798.6936   2.3624     6166.185   
5884.061   8.62589    49.9678    8.500000   330.674    534.9055   2.558146   0.130677    820.934    790.8549   2.3543     6149.715   
5883.908   8.61124    51.7629    8.500000   407.019    585.6011   2.484389   0.164003    803.791    771.8239   2.3313     6186.314   
5883.756   8.74306    51.8527    8.500000   491.977    622.8191   2.392980   0.177044    770.793    737.3967   2.2676     6152.155   
5883.604   8.76137    47.9670    8.500000   564.042    641.6304   2.314758   0.174322    715.210    694.7433   2.4557     6132.635   
5883.451   8.78115    41.4953    8.500000   608.812    649.2067   2.260005   0.168761    648.869    654.0051   2.9486     6175.335   
5883.299   8.79433    35.8351    8.500000   629.971    643.8456   2.224713   0.155082    589.364    621.8682   3.6599     6153.069   
5883.146   8.80165    35.7692    8.500000   638.028    633.9867   2.198141   0.139787    554.989    602.6394   4.1237     6110.064   
5882.994   8.78701    40.6555    8.500000   652.279    627.6313   2.177433   0.127048    550.201    595.5011   4.0644     6100.915   
5882.842   8.81630    46.8499    8.500000   661.710    628.2948   2.172181   0.125052    569.156    593.5271   3.4829     6089.935   
5882.689   8.82729    52.6324    8.500000   646.098    632.0601   2.196246   0.134760    596.036    596.2635   2.7854     6080.175   
5882.537   8.81630    54.5834    8.500000   590.760    623.4509   2.256500   0.141320    620.244    601.0679   2.3495     6096.035   
5882.384   8.83095    57.0151    8.500000   508.430    608.9629   2.344213   0.151877    643.026    609.8276   2.0854     6108.845   
5882.231   8.81630    59.8812    8.500000   441.642    599.7982   2.428216   0.167485    664.787    622.1399   1.9657     6123.790   
5882.079   8.83095    61.9119    8.500000   419.794    604.1011   2.471422   0.183531    686.442    641.7156   1.9077     6116.774   
5881.927   8.82729    59.6013    8.500000   438.069    616.9147   2.465180   0.192363    708.816    660.4995   1.9018     6152.765   
5881.774   8.83095    57.4588    8.500000   471.500    628.9302   2.422756   0.193610    712.454    666.1874   1.9844     6178.995   
5881.622   8.83095    54.3615    8.500000   515.309    629.2429   2.360529   0.176266    679.135    653.1465   2.2663     6238.774   
5881.470   8.84560    49.2220    8.500000   562.690    628.2227   2.289632   0.157349    621.949    624.5162   2.8617     6200.955   
5881.317   8.84560    42.1378    8.500000   617.643    628.5604   2.220660   0.139172    555.160    590.9750   3.8824     6175.944   
5881.165   8.84377    33.6236    8.500000   666.088    627.3822   2.160255   0.122533    500.000    564.1793   4.9142     6157.035   
5881.013   8.84560    25.6881    8.500000   701.520    622.6656   2.113993   0.105941    468.804    548.1316   5.7085     6119.215   
5880.860   8.84560    24.6280    8.500000   722.202    617.0712   2.081264   0.092674    449.681    538.5317   6.3726     6096.645   
5880.708   8.86025    29.0968    8.500000   742.166    616.3549   2.057242   0.086266    432.537    537.6803   7.0112     6080.175   
5880.556   8.86025    34.5569    8.500000   760.656    615.6030   2.039700   0.080340    424.711    539.5847   7.5011     6103.354   
5880.403   8.86025    39.1447    8.500000   770.055    616.8356   2.030124   0.079539    422.398    539.8383   7.6495     6133.854   
5880.251   8.86025    43.4904    8.500000   774.156    618.9407   2.025875   0.081294    421.473    534.3983   7.4729     6183.265   
5880.099   8.87490    45.9797    8.500000   785.279    623.4321   2.025644   0.084419    420.613    522.2377   7.0686     6207.055   
5879.946   8.87490    46.2198    8.500000   779.602    626.0530   2.039020   0.089334    420.200    511.2992   6.5682     6250.975   
5879.793   8.88954    43.8303    8.500000   744.577    628.1458   2.077957   0.101280    427.861    506.4576   6.0484     6241.215   
5879.641   8.87673    43.8675    8.500000   678.822    625.0928   2.144967   0.115726    445.089    517.0216   5.6620     6211.935   
5879.488   8.88954    45.7742    8.500000   602.087    623.5015   2.232165   0.137591    468.324    539.1636   5.4596     6163.744   
5879.336   8.90419    47.9866    8.500000   530.243    621.4885   2.321337   0.160309    497.339    573.0529   5.3819     6160.694   
5879.184   8.88955    46.5361    8.500000   483.509    621.5347   2.392706   0.178807    532.380    611.2397   5.2015     6179.300   
5879.031   8.88954    41.2792    8.500000   448.536    609.7944   2.441840   0.178049    581.174    648.0223   4.6103     6205.225   
5878.879   8.90969    33.6351    8.500000   412.562    587.6483   2.481281   0.164183    640.739    676.1100   3.6652     6271.715   
5878.727   8.87490    29.5938    8.500000   378.536    570.0182   2.510458   0.156209    700.697    701.5380   2.7736     6308.314   
5878.574   8.75772    28.4623    8.500000   378.386    570.5619   2.511177   0.157075    748.182    719.3657   2.2966     6313.805   
5878.422   8.90419    28.6030    8.500000   413.524    590.3151   2.478109   0.167459    780.619    728.9493   1.8807     6290.015   
5878.270   8.91884    29.2780    8.500000   465.445    619.6840   2.428886   0.183951    805.637    734.8043   1.6405     6168.015   
5878.117   8.91884    31.1585    8.500000   502.450    626.9304   2.386731   0.178272    832.895    741.4092   1.4344     6084.444   
5877.965   8.71377    33.3117    8.500000   489.444    598.6747   2.372810   0.145399    863.681    748.1438   1.3471     6065.535   
5877.812   8.56730    36.3557    8.500000   429.981    547.8586   2.396713   0.097976    888.776    758.3667   1.2906     6100.305   
5877.660   8.46477    37.9785    8.500000   364.387    501.7184   2.447637   0.058343    902.447    764.7216   1.2901     6157.035   
5877.508   8.40617    38.1784    8.500000   319.018    476.7035   2.506178   0.042644    902.279    767.6743   1.3292     6223.524   
5877.355   8.43547    37.2578    8.500000   297.920    476.3804   2.551365   0.055756    898.684    770.0729   1.3833     6271.715   
5877.203   8.39885    34.9525    8.500000   298.283    485.4841   2.575759   0.071157    895.335    780.4194   1.4847     6292.455   
5877.050   8.58194    32.7957    8.500000   308.878    508.9310   2.582390   0.103163    895.080    784.1456   1.4447     6317.159   
5876.897   8.78701    33.2850    8.500000   332.350    539.4600   2.575024   0.136673    897.754    782.5990   1.3166     6330.274   
5876.745   8.68447    36.3177    8.500000   353.664    556.7972   2.555597   0.150396    904.408    776.8191   1.2590     6278.425   
5876.593   8.51419    40.1409    8.500000   357.636    546.7279   2.535701   0.133081    922.182    775.1704   1.1797     6165.880   
5876.440   8.47941    44.0394    8.500000   336.806    509.8661   2.526723   0.087383    953.898    779.5826   1.0383     6135.685   
5876.288   8.50870    46.5910    8.500000   298.477    459.1001   2.538523   0.024848    990.319    795.6146   0.9067     6109.455   
5876.136   8.49405    47.6976    8.500000   261.540    424.7690   2.570779   -0.012989   1029.275   816.0618   0.8327     6082.005   
5875.983   8.49772    48.6423    8.500000   242.445    416.7244   2.605305   -0.013641   1070.202   840.5259   0.7737     6074.685   
5875.831   8.49405    48.8883    8.500000   237.183    415.0685   2.623839   -0.012547   1106.554   862.7837   0.7308     6124.095   
5875.679   8.49405    47.4730    8.500000   238.611    417.8192   2.627489   -0.008288   1121.745   868.6342   0.7063     6141.784   
5875.526   8.50870    47.2670    8.500000   246.326    429.6984   2.624117   0.008523    1091.777   847.6897   0.7354     6140.260   
5875.374   8.49772    49.0018    8.500000   259.903    446.8008   2.614236   0.030057    1015.418   808.0741   0.8927     6182.044   
5875.222   8.52335    49.6699    8.500000   277.908    466.0934   2.599154   0.051610    921.224    771.4448   1.1697     6232.675   
5875.069   8.55265    47.9410    8.500000   292.215    479.6620   2.581995   0.065294    853.445    753.4886   1.5212     6196.075   
5874.917   8.53800    45.2619    8.500000   298.334    478.2059   2.566597   0.058639    824.962    759.1213   1.8630     6136.295   
5874.765   8.55265    41.2119    8.500000   298.145    472.5258   2.555829   0.048891    818.052    768.1298   2.0886     6178.995   
5874.612   8.54715    37.7701    8.500000   296.032    466.4992   2.554183   0.039704    803.447    762.9929   2.2185     6120.435   
5874.459   8.55265    35.0923    8.500000   297.213    474.9113   2.559012   0.053679    777.786    741.2375   2.2842     6144.225   
5874.307   8.53800    32.7225    8.500000   316.009    505.5652   2.550788   0.093118    749.214    717.4358   2.3226     6158.255   
5874.154   8.59659    29.3860    8.500000   368.216    552.2354   2.500144   0.135539    735.334    702.4312   2.2746     6134.465   
5874.002   8.93348    27.5243    8.500000   457.877    594.7301   2.400180   0.153259    736.848    700.9254   2.0173     6153.375   
5873.850   8.99207    27.0864    8.500000   572.173    623.9342   2.272750   0.148346    746.129    702.6028   1.8829     6218.645   
5873.697   9.00672    26.8468    8.500000   679.105    626.8173   2.151291   0.117921    756.291    700.6586   1.7311     6234.505   
5873.545   8.99207    25.7692    8.500000   754.679    620.4364   2.062027   0.088380    764.358    694.8622   1.5938     6194.854   
5873.393   9.02137    24.3880    8.500000   793.018    616.7753   2.015945   0.073586    768.876    690.4645   1.4890     6239.995   
5873.240   9.00672    22.6864    8.500000   803.879    621.5605   2.004034   0.077257    763.224    684.9886   1.4869     6235.115   
5873.088   9.00855    22.1031    8.500000   803.362    626.8663   2.003984   0.084409    741.025    671.2802   1.5623     6161.915   
5872.936   9.02137    24.4792    8.500000   822.303    634.5393   1.998599   0.089806    705.436    651.0862   1.7330     6128.975   
5872.783   9.02137    28.8558    8.500000   840.067    637.0698   1.991896   0.088826    665.089    634.5215   2.0359     6127.145   
5872.631   9.03602    32.0005    8.500000   842.854    643.8357   1.997477   0.096896    631.713    626.5342   2.4585     6107.624   
5872.479   9.03602    32.7261    8.500000   822.891    647.6879   2.021548   0.106614    617.841    635.5369   2.9469     6135.380   
5872.326   9.03602    31.3828    8.500000   783.366    650.6381   2.058711   0.120206    618.148    647.5654   3.2691     6093.595   
5872.174   9.05799    28.6147    8.500000   740.876    648.9717   2.095234   0.129231    624.418    652.0167   3.2056     6184.484   
5872.021   9.03602    25.7786    8.500000   718.228    647.0142   2.120198   0.132938    632.817    646.8691   2.9166     6225.965   
5871.868   9.05066    25.0404    8.500000   701.137    642.5059   2.134601   0.131971    642.948    642.5963   2.5666     6266.225   
5871.716   9.04151    26.3749    8.500000   689.819    639.4832   2.138304   0.131325    655.225    641.6985   2.3321     6299.774   
5871.563   9.05066    28.2028    8.500000   698.961    636.4078   2.129639   0.124710    669.727    649.0750   2.1659     6329.055   
5871.411   9.05066    28.9966    8.500000   714.884    637.0614   2.111953   0.121059    686.484    657.4320   2.0450     6355.284   
5871.259   9.06531    28.1425    8.500000   737.902    639.0393   2.096171   0.117290    698.341    662.0586   1.9342     6388.225   
5871.106   9.07446    25.0414    8.500000   742.510    639.8716   2.092652   0.117118    706.149    664.3975   1.8727     6432.755   
5870.954   9.06531    22.5161    8.500000   728.952    640.9083   2.106303   0.122140    705.138    664.6873   1.8860     6474.845   
5870.802   9.06531    21.6649    8.500000   706.540    643.1987   2.127374   0.131327    701.184    666.0327   1.9604     6510.835   
5870.649   9.05066    21.6122    8.500000   692.848    643.4148   2.146214   0.135516    693.268    666.8420   2.0631     6548.655   
5870.497   9.06531    20.8303    8.500000   683.358    646.9509   2.157670   0.142801    690.878    667.6232   2.1153     6329.055   
5870.345   9.07996    19.8392    8.500000   684.943    648.9819   2.162318   0.144929    689.799    666.7288   2.1082     6104.575   
5870.192   9.07446    18.4910    8.500000   685.320    649.5660   2.161790   0.145562    694.734    668.4637   2.0667     6038.694   
5870.040   9.07996    17.6979    8.500000   688.429    649.8452   2.163221   0.145013    707.878    675.8348   1.9487     5972.814   
5869.888   9.07996    18.1077    8.500000   679.862    650.1174   2.174974   0.147861    737.233    687.8572   1.7539     5972.204   
5869.735   9.09461    19.2005    8.500000   657.666    652.6056   2.203232   0.157651    769.624    698.1758   1.5298     6057.604   
5869.583   9.09461    20.3661    8.500000   624.327    655.5427   2.242393   0.171759    790.579    702.3666   1.3894     6130.805   
5869.431   9.09461    20.7024    8.500000   595.480    657.7568   2.277155   0.183998    788.344    700.0118   1.3812     6177.164   
5869.278   9.09095    21.0383    8.500000   581.217    655.4988   2.292064   0.186000    767.219    693.6320   1.4912     6207.664   
5869.125   9.10926    21.0018    8.500000   584.874    649.6257   2.284398   0.177309    744.665    686.9012   1.6239     6228.404   
5868.973   9.09094    20.5763    8.500000   595.840    642.4424   2.259997   0.164408    728.178    678.4771   1.7386     6252.805   
5868.820   9.10926    20.2569    8.500000   620.040    637.7269   2.223363   0.150363    716.332    671.8835   1.7883     6277.814   
5868.668   9.12390    19.3387    8.500000   655.277    634.1193   2.179363   0.134630    709.955    667.3781   1.8306     6239.995   
5868.516   9.10926    18.1865    8.500000   693.063    634.4368   2.141832   0.123841    707.092    670.5712   1.8826     6179.604   
5868.363   9.10742    17.6591    8.500000   716.256    641.5269   2.131077   0.126447    718.518    681.3380   1.8603     6111.284   
5868.211   9.12390    17.7831    8.500000   697.332    650.0784   2.157349   0.142743    744.358    693.6646   1.7237     6109.455   
5868.059   9.12390    18.0395    8.500000   654.059    657.5051   2.206022   0.164931    773.240    705.5731   1.5520     6199.734   
5867.906   9.12390    19.7111    8.500000   611.328    652.6230   2.250607   0.172273    796.607    712.9646   1.3840     6221.694   
5867.754   9.12390    21.5705    8.500000   581.580    641.7708   2.273623   0.168384    816.663    714.5476   1.2475     6217.425   
5867.602   9.12390    25.6267    8.500000   577.980    634.2280   2.269448   0.159853    823.351    714.0370   1.1647     6253.415   
5867.449   9.15320    30.6334    8.500000   601.823    633.6415   2.242515   0.151011    827.451    714.4808   1.1201     6171.064   
5867.297   9.14038    36.5022    8.500000   634.639    635.2448   2.204835   0.142490    829.424    715.5962   1.1068     6148.495   
5867.145   9.15320    42.8317    8.500000   670.933    638.5391   2.162469   0.135652    823.425    707.5681   1.0910     6183.875   
5866.992   9.13855    50.3322    8.500000   711.371    635.6459   2.113366   0.120204    780.592    671.9930   1.1635     6162.524   
5866.840   9.15686    52.6398    8.500000   756.391    628.5381   2.062727   0.098650    707.517    630.9583   1.4170     6165.575   
5866.688   9.13855    49.3619    8.500000   787.088    621.9272   2.019069   0.081961    635.007    604.3326   1.9421     6157.645   
5866.534   9.18249    40.3884    8.500000   812.148    613.6680   1.985663   0.064651    597.276    607.4497   2.5682     6144.835   
5866.382   9.16784    30.2276    8.500000   833.640    611.8685   1.966063   0.057004    613.726    641.8229   2.9274     6151.544   
5866.229   9.16784    22.7682    8.500000   838.737    616.9772   1.966199   0.062658    675.259    685.0654   2.6219     6158.255   
5866.077   9.18249    20.9988    8.500000   829.743    625.6748   1.978419   0.076382    735.952    711.5223   2.1373     6107.015   
5865.925   9.17333    20.5284    8.500000   824.679    629.1954   1.987972   0.082241    773.759    728.7737   1.8482     6067.975   
5865.772   9.18249    20.3711    8.500000   824.099    628.1768   1.979386   0.081043    792.891    738.9225   1.7087     6108.234   
5865.620   9.19714    20.1956    8.500000   856.379    621.1832   1.944339   0.064112    799.415    738.7212   1.5798     6147.580   
5865.468   9.18249    20.0120    8.500000   917.796    615.5734   1.891752   0.042776    805.417    725.1464   1.3836     6205.225   
5865.315   9.19714    19.7086    8.500000   973.456    612.7067   1.845495   0.027151    813.660    704.0530   1.1395     6250.975   
5865.163   9.18981    19.4565    8.500000   1004.192   613.0149   1.819908   0.021355    811.639    684.6669   1.0050     6285.135   
5865.011   9.19714    19.4501    8.500000   1010.121   613.8284   1.813631   0.021275    778.985    663.1390   1.0506     6307.704   
5864.858   9.19714    19.9022    8.500000   1005.835   616.5231   1.817188   0.025745    719.448    635.1644   1.2456     6341.255   
5864.706   9.18981    20.9639    8.500000   1004.680   619.6086   1.822212   0.030100    653.461    595.1033   1.4531     6377.854   
5864.554   9.19714    21.6907    8.500000   1000.176   619.2623   1.826122   0.030537    605.597    556.8489   1.5234     6426.044   
5864.401   9.19714    22.1790    8.500000   995.460    619.5994   1.828170   0.031931    591.191    536.1301   1.4787     6376.635   
5864.249   9.21179    22.1395    8.500000   994.159    616.9800   1.826335   0.028690    602.232    542.5448   1.4362     6142.395   
5864.097   9.20629    21.9332    8.500000   997.376    613.8185   1.821692   0.023800    619.644    563.1108   1.4788     6049.064   
5863.943   9.21179    21.9691    8.500000   1000.134   612.9977   1.819744   0.022142    640.850    588.3895   1.5464     5974.645   
5863.791   9.21179    21.8979    8.500000   996.032    614.3705   1.831117   0.024813    658.423    607.6403   1.6005     5991.725   
5863.639   9.21179    21.5790    8.500000   957.587    618.4178   1.870342   0.038104    675.938    626.5311   1.6541     6006.060   
5863.486   9.24108    21.6154    8.500000   880.288    627.3153   1.938257   0.066729    688.617    644.6698   1.7132     6041.135   
5863.334   9.24108    21.3625    8.500000   801.891    634.4648   2.012531   0.094733    692.772    654.3772   1.8085     6067.975   
5863.182   9.25573    20.2814    8.500000   753.790    640.5325   2.064754   0.114959    678.539    648.9734   1.9427     6113.725   
5863.029   9.24108    19.4046    8.500000   742.534    642.6589   2.081540   0.120705    645.501    631.5613   2.2130     6133.854   
5862.877   9.25573    18.4430    8.500000   759.172    641.1934   2.073363   0.114391    596.722    605.8392   2.6636     6184.484   
5862.725   9.24108    17.8438    8.500000   769.834    639.9650   2.064509   0.110019    548.812    581.5311   3.4383     6193.024   
5862.572   9.25573    18.0318    8.500000   762.267    639.9277   2.066722   0.111944    512.095    568.3248   4.2064     6145.444   
5862.420   9.25573    18.4015    8.500000   756.578    641.4830   2.074180   0.115446    493.996    562.9202   4.7328     6160.694   
5862.268   9.25573    18.6943    8.500000   756.062    646.0977   2.080151   0.121508    489.520    560.9443   4.9667     6201.564   
5862.115   9.25573    18.9566    8.500000   751.553    644.9462   2.085119   0.121230    487.650    562.0596   5.0615     6213.155   
5861.963   9.27038    19.0201    8.500000   739.297    639.8158   2.096734   0.117915    487.707    562.9091   5.1208     6260.734   
5861.811   9.25573    18.6440    8.500000   705.399    633.4744   2.119053   0.119061    485.659    563.1185   5.2150     6276.595   
5861.658   9.27038    19.3961    8.500000   678.020    630.9050   2.152278   0.123613    484.420    564.5001   5.2805     6307.399   
5861.506   9.28502    26.6903    8.500000   645.024    636.6281   2.198467   0.141045    482.503    562.7435   5.2633     6265.005   
5861.354   9.27038    37.6427    8.500000   608.780    650.8174   2.261173   0.170818    483.258    559.6758   5.1812     6145.444   
5861.200   9.28502    45.7654    8.500000   558.854    658.5007   2.330063   0.197617    482.979    556.1062   5.0479     6086.274   
5861.048   9.27038    45.9549    8.500000   506.770    645.6194   2.394176   0.200839    483.980    554.9608   4.9564     6050.895   
5860.896   9.25573    38.0607    8.500000   457.425    627.3777   2.410643   0.197621    490.860    559.6451   4.8799     6016.124   
5860.743   9.15026    26.7274    8.500000   499.398    608.4397   2.351213   0.154748    507.700    577.5397   4.8348     6036.255   
5860.591   9.24108    19.7310    8.500000   574.590    602.7513   2.253013   0.118960    549.441    615.1725   4.3561     6100.915   
5860.438   9.29967    17.1737    8.500000   635.562    610.2323   2.196635   0.109001    623.152    668.4379   3.4915     6118.300   
5860.286   9.29528    16.0922    8.500000   630.995    625.7509   2.212178   0.131196    717.011    720.9556   2.4957     6111.284   
5860.134   9.29967    15.2064    8.500000   574.656    632.3807   2.290154   0.158596    801.252    757.7188   1.8197     6115.555   
5859.981   9.29967    14.5252    8.500000   496.824    638.4481   2.380672   0.195568    856.490    771.0048   1.4204     6096.645   
5859.829   9.31432    14.5721    8.500000   470.863    641.5052   2.435503   0.210240    870.810    767.1046   1.2305     6081.395   
5859.677   9.30846    15.3495    8.500000   459.554    627.9915   2.449276   0.197502    866.587    762.6644   1.1992     6087.495   
5859.524   9.29967    16.3027    8.500000   439.227    602.6492   2.449983   0.172501    861.222    762.9346   1.2237     6094.814   
5859.372   8.97742    17.4252    8.500000   423.209    580.6422   2.420522   0.149178    862.424    764.3711   1.3831     6142.395   
5859.220   9.02137    17.8041    8.500000   476.861    571.8304   2.331221   0.112690    861.477    765.3599   1.3830     6180.520   
5859.067   9.32897    18.8765    8.500000   583.203    578.6162   2.205113   0.082213    842.619    752.0953   1.2902     6218.645   
5858.915   9.35826    19.2247    8.500000   694.019    598.8168   2.101655   0.075813    803.426    724.1073   1.3594     6255.854   
5858.763   9.36119    19.4689    8.500000   755.025    610.7855   2.050157   0.075331    753.142    691.1226   1.4843     6233.895   
5858.609   9.35826    18.6833    8.500000   751.179    609.9901   2.048664   0.075276    705.391    658.8418   1.6476     6205.225   
5858.457   9.34361    18.4961    8.500000   708.849    605.5789   2.070717   0.080868    666.057    635.6498   1.8413     6158.255   
5858.305   9.37291    18.2340    8.500000   691.808    600.4916   2.086877   0.078757    642.703    625.5210   2.0314     6104.575   
5858.152   9.34801    19.2011    8.500000   690.706    599.0389   2.091167   0.077075    625.084    620.3700   2.3022     6042.354   
5858.000   9.35826    19.7602    8.500000   688.708    600.8066   2.097476   0.080088    614.315    627.7754   2.5641     6053.335   
5857.848   9.36119    20.2576    8.500000   685.537    609.8600   2.111919   0.093371    629.992    647.9817   2.5960     6083.835   
5857.695   9.35826    21.0189    8.500000   680.570    621.7063   2.134997   0.110723    674.330    672.2271   2.2306     6155.204   
5857.543   9.35826    21.7583    8.500000   666.637    634.0803   2.161885   0.131145    742.380    697.7134   1.7126     6207.055   
5857.391   9.38755    21.9820    8.500000   645.514    632.1398   2.187061   0.135045    808.212    719.3700   1.2923     6244.875   
5857.238   9.38756    22.1647    8.500000   595.474    600.9738   2.214385   0.109385    837.859    725.3470   1.1228     6257.685   
5857.086   9.09753    28.8732    8.500000   511.718    546.7487   2.261000   0.061524    811.172    714.5132   1.3498     6238.774   
5856.934   8.71377    45.1469    8.500000   415.461    494.2866   2.338703   0.019796    746.723    691.3451   1.9462     6221.084   
5856.781   8.74306    65.4944    8.500000   337.934    463.5946   2.438182   0.008089    667.080    662.5496   2.6972     6150.935   
5856.629   8.79433    80.7176    8.500000   297.206    464.0182   2.519330   0.034506    609.947    647.4647   3.6547     6069.194   
5856.477   9.05066    82.9036    8.500000   306.741    489.1345   2.541786   0.071761    607.557    661.6506   3.8653     6050.895   
5856.324   9.07995    71.7251    8.500000   347.218    517.6299   2.507832   0.093790    647.915    690.2085   3.5999     6082.005   
5856.172   9.09460    56.4135    8.500000   396.841    547.3458   2.451709   0.113229    692.559    712.7565   3.1308     6109.455   
5856.020   9.10925    47.2656    8.500000   450.116    576.0834   2.400923   0.130349    707.738    722.6710   2.9877     6113.115   
5855.866   9.10925    44.0700    8.500000   489.086    599.3230   2.368938   0.146440    687.053    717.7169   3.3595     6139.345   
5855.714   9.26891    43.9794    8.500000   504.797    613.1318   2.361712   0.158948    648.884    706.2323   3.8280     6160.084   
5855.562   9.27037    42.0362    8.500000   504.704    625.2046   2.371868   0.175100    626.870    699.8208   4.2687     6158.864   
5855.409   9.32896    37.8122    8.500000   499.830    631.7939   2.386821   0.185702    626.281    698.3976   4.2732     6141.175   
5855.257   9.35826    33.0531    8.500000   497.101    637.2583   2.397541   0.193915    629.041    692.5620   4.0708     6124.704   
5855.104   9.36118    31.6802    8.500000   498.555    642.1149   2.405041   0.199605    628.826    685.6886   3.8484     6157.949   
5854.952   9.37290    33.4006    8.500000   494.438    644.3394   2.415871   0.204122    622.990    671.5354   3.7160     6187.535   
5854.800   9.25572    37.9391    8.500000   476.130    636.8837   2.433189   0.202043    610.660    662.3873   3.7811     6186.314   
5854.647   8.83095    44.0860    8.500000   452.548    622.2201   2.448837   0.192942    606.369    653.2296   4.2153     6146.664   
5854.495   8.71377    51.2039    8.500000   426.403    589.9954   2.455805   0.160883    604.031    658.8348   4.3645     6132.024   
5854.343   8.74160    57.4400    8.500000   392.178    544.8043   2.460077   0.111744    623.484    675.9100   4.2364     6097.255   
5854.190   8.68447    61.4158    8.500000   355.680    504.1470   2.475596   0.067166    655.992    696.0602   3.9033     6056.080   
5854.038   8.64053    62.4838    8.500000   329.739    489.7344   2.508760   0.058327    687.007    706.4257   3.4828     6075.295   
5853.886   8.64053    63.9046    8.500000   317.518    501.6174   2.542778   0.085687    699.233    708.2557   3.1051     6122.265   
5853.733   8.62588    66.0882    8.500000   325.033    517.1783   2.550660   0.106262    701.454    698.1930   2.9087     6094.204   
5853.581   8.62588    67.2281    8.500000   343.881    524.9319   2.530560   0.107297    687.817    685.8401   2.8197     6098.475   
5853.429   8.64053    67.1797    8.500000   360.636    531.3828   2.506502   0.107884    683.028    677.7480   2.7297     6123.484   
5853.275   8.64053    65.4876    8.500000   373.479    542.3463   2.490591   0.117769    684.279    670.9248   2.6256     6205.835   
5853.123   8.62588    62.9723    8.500000   394.794    562.7501   2.476991   0.137200    685.501    671.3779   2.6031     6252.805   
5852.971   8.75771    60.3180    8.500000   421.899    587.0632   2.453207   0.158887    687.938    677.3248   2.5862     6280.255   
5852.818   9.07996    55.4996    8.500000   455.501    597.9355   2.415554   0.158740    686.406    684.5671   2.5092     6296.115   
5852.666   9.21179    47.2858    8.500000   485.671    601.3981   2.376400   0.150697    676.205    683.5458   2.6011     6261.345   
5852.514   9.22643    40.4649    8.500000   505.755    608.3329   2.351441   0.152076    653.536    669.3513   2.7897     6113.115   
5852.361   9.22644    42.2040    8.500000   513.932    611.4182   2.341315   0.153051    624.244    647.3083   3.0255     6086.580   
5852.209   9.22644    47.8713    8.500000   518.946    616.6287   2.339625   0.158125    595.026    626.4072   3.2609     6036.255   
5852.057   9.24108    53.2627    8.500000   526.273    627.4159   2.340405   0.169657    575.030    610.2069   3.4227     6078.345   
5851.904   9.22644    52.0496    8.500000   527.227    626.9994   2.340963   0.168746    570.168    608.1663   3.5032     6122.265   
5851.752   9.22644    44.2656    8.500000   501.691    599.4966   2.352411   0.141594    574.495    610.4656   3.5426     6113.725   
5851.600   8.96278    33.8153    8.500000   444.949    561.5929   2.390022   0.111601    578.367    619.8323   3.8894     6086.274   
5851.447   8.86025    29.0291    8.500000   392.923    542.0325   2.443616   0.107151    589.470    637.3677   4.0924     6146.055   
5851.295   9.02137    26.5102    8.500000   380.801    553.5876   2.479671   0.130845    607.920    655.3479   3.8373     6136.904   
5851.143   9.47544    26.6345    8.500000   412.949    593.3984   2.477592   0.172043    630.894    664.1014   3.0393     6166.185   
5850.990   9.49009    27.9734    8.500000   463.449    631.6390   2.446564   0.200600    655.267    669.7650   2.5690     6106.404   
5850.838   9.50474    29.7012    8.500000   496.981    641.4182   2.412340   0.199340    672.736    668.5546   2.2424     6126.229   
5850.685   9.49009    30.5069    8.500000   501.619    634.6859   2.393067   0.188765    677.204    665.1025   2.0951     6111.895   
5850.532   9.50474    31.3752    8.500000   494.868    625.3134   2.386755   0.179177    675.997    663.1189   2.0579     6081.395   
5850.380   9.49009    31.2546    8.500000   492.842    619.6353   2.380870   0.172458    670.751    660.8174   2.1172     6115.859   
5850.228   9.40220    31.4091    8.500000   502.021    620.9808   2.373290   0.170563    662.819    660.0576   2.2993     6131.415   
5850.075   9.19714    32.3304    8.500000   508.723    627.0745   2.369408   0.175982    655.428    664.3694   2.6629     6066.755   
5849.923   9.22643    33.4741    8.500000   511.854    632.6294   2.371601   0.182046    647.538    669.4529   2.9359     6100.915   
5849.771   9.47544    34.5792    8.500000   505.624    630.0873   2.376216   0.181165    639.290    671.4274   2.9732     6139.955   
5849.618   9.56333    36.8928    8.500000   494.576    619.9510   2.377459   0.172177    631.612    667.6066   3.0464     6202.784   
5849.466   9.54868    38.8025    8.500000   497.363    617.0221   2.364281   0.167140    624.119    661.8495   3.1114     6243.044   
5849.313   9.56333    39.9632    8.500000   527.847    623.3893   2.332918   0.163738    618.748    654.8490   3.0783     6270.189   
5849.161   9.56333    39.5011    8.500000   568.747    635.4187   2.292813   0.164621    610.702    643.9454   3.0587     6277.204   
5849.009   9.56882    38.4707    8.500000   609.688    648.9778   2.255319   0.168182    587.952    622.6744   3.1779     6176.555   
5848.856   9.54868    38.3455    8.500000   638.552    652.0558   2.231655   0.162849    553.741    598.1973   3.5672     6070.415   
5848.704   9.56333    41.6524    8.500000   632.979    650.1351   2.233550   0.162163    521.126    581.0690   4.0977     6082.005   
5848.552   9.56333    44.5690    8.500000   608.039    650.4644   2.261722   0.170614    503.435    576.7855   4.5352     6020.395   
5848.399   9.56333    45.4275    8.500000   572.050    648.4902   2.301285   0.180294    509.147    584.5883   4.6146     6053.335   
5848.247   9.56333    43.8770    8.500000   542.298    644.7969   2.329890   0.186246    528.679    597.0667   4.3643     6109.455   
5848.095   9.56333    42.1115    8.500000   540.532    640.7607   2.330018   0.181708    545.878    604.6605   4.0219     6174.115   
5847.941   9.56333    41.5242    8.500000   560.907    638.1312   2.306707   0.170916    553.870    605.6691   3.7961     6219.864   
5847.789   9.56333    43.2210    8.500000   583.587    639.9543   2.281641   0.165352    553.461    605.0636   3.7549     6252.805   
5847.637   9.56333    44.6681    8.500000   593.503    641.3820   2.266693   0.163828    551.054    605.9387   3.8181     6266.225   
5847.484   9.57798    45.3642    8.500000   599.317    641.9867   2.262831   0.162658    552.466    608.8680   3.8492     6262.564   
5847.332   9.56882    46.9518    8.500000   588.888    638.0178   2.267347   0.161039    556.787    612.7867   3.8057     6155.204   
5847.180   9.57798    46.8306    8.500000   575.940    631.5336   2.278800   0.157041    569.398    620.7313   3.5355     6083.225   
5847.027   9.59262    44.4517    8.500000   559.125    627.6234   2.288494   0.157828    595.260    628.7927   2.9879     6074.075   
5846.875   9.59262    40.2437    8.500000   561.984    627.8921   2.285147   0.157164    626.272    635.9498   2.4573     6044.795   
5846.723   9.57797    34.6443    8.500000   582.298    630.6179   2.260848   0.153648    647.402    641.1919   2.1476     6050.895   
5846.570   9.59262    30.6028    8.500000   623.613    637.5936   2.223651   0.149042    659.301    645.2489   1.9803     6096.645   
5846.418   9.60178    31.0027    8.500000   657.872    641.1921   2.188258   0.143007    665.023    645.8444   1.8939     6152.155   
5846.266   9.59262    32.7809    8.500000   674.221    638.6552   2.168221   0.134824    674.168    652.1226   1.8175     6196.075   
5846.113   9.59262    35.3856    8.500000   669.370    635.4811   2.163455   0.132150    690.283    657.4353   1.7030     6226.575   
5845.961   9.59262    38.0170    8.500000   660.486    629.4462   2.174083   0.126934    704.735    661.5897   1.5930     6205.835   
5845.809   9.60727    39.6832    8.500000   631.050    627.1731   2.203532   0.133055    707.188    660.5796   1.5459     6207.055   
5845.656   9.62192    41.4625    8.500000   596.417    631.8965   2.247584   0.150535    699.849    657.6300   1.5822     6182.655   
5845.504   9.60727    42.2085    8.500000   571.327    640.0459   2.288793   0.169712    685.305    652.5021   1.7021     6118.909   
5845.351   9.62192    40.9681    8.500000   551.968    639.5906   2.317194   0.176013    667.955    647.4065   1.8397     6063.704   
5845.198   9.62192    37.8423    8.500000   524.440    620.6996   2.331904   0.161458    658.526    646.4329   1.9303     6102.744   
5845.046   9.57798    34.9177    8.500000   491.406    584.5679   2.349856   0.124894    674.959    658.6575   1.8810     6112.505   
5844.894   9.53587    31.9262    8.500000   439.595    556.7350   2.392742   0.106840    723.644    685.7865   1.6707     6100.915   
5844.741   9.47544    29.9037    8.500000   397.665    555.3344   2.454396   0.124790    782.633    716.3672   1.4288     6121.044   
5844.589   9.43150    27.6402    8.500000   390.093    579.9729   2.500775   0.164508    833.050    741.3960   1.2543     6155.204   
5844.437   9.38756    26.5646    8.500000   408.390    611.9929   2.512369   0.199760    852.376    751.8706   1.2152     6113.115   
5844.284   9.37291    25.6183    8.500000   437.069    635.3384   2.492924   0.217138    839.672    751.6866   1.3128     6081.090   
5844.132   9.38756    26.4650    8.500000   469.406    646.1100   2.455632   0.216770    808.466    744.6464   1.5020     6080.175   
5843.979   9.38756    28.6745    8.500000   502.467    653.6782   2.419453   0.212795    777.156    735.5621   1.7079     6159.475   
5843.827   9.40220    32.3815    8.500000   516.324    656.9174   2.401184   0.211444    751.119    720.0308   1.8138     6218.035   
5843.675   9.59262    35.7440    8.500000   502.448    644.6255   2.404995   0.201276    738.024    704.6505   1.7200     6249.755   
5843.522   9.60727    37.1822    8.500000   474.776    626.9750   2.410931   0.189652    732.384    695.6953   1.6785     6280.255   
5843.370   9.51939    35.9542    8.500000   476.356    614.0518   2.390909   0.171775    730.248    692.9418   1.7069     6305.875   
5843.218   9.65121    33.3544    8.500000   517.485    616.4091   2.334819   0.158394    726.562    690.1152   1.6483     6260.124   
5843.065   9.65121    31.3490    8.500000   589.572    631.5044   2.267119   0.152329    721.277    686.3546   1.6359     6127.755   
5842.913   9.66586    31.2202    8.500000   646.905    650.2742   2.218006   0.157990    718.659    677.7184   1.5915     6043.575   
5842.760   9.65121    32.7961    8.500000   665.888    655.5270   2.201693   0.158860    712.606    670.4902   1.5610     5995.080   
5842.607   9.65121    34.1553    8.500000   655.162    657.9659   2.208149   0.165176    705.317    661.7815   1.5576     6050.895   
5842.455   9.66586    34.1308    8.500000   643.496    657.4877   2.227108   0.168164    691.970    652.8015   1.6116     6086.274   
5842.303   9.65121    33.6689    8.500000   621.109    660.0017   2.256511   0.178393    668.263    642.4701   1.8276     6121.044   
5842.150   9.68051    34.1762    8.500000   591.802    663.6738   2.296896   0.192636    635.819    638.6145   2.1760     6166.795   
5841.998   9.69516    34.4419    8.500000   563.262    669.4725   2.333971   0.209702    612.322    635.3469   2.5674     6128.975   
5841.846   9.65121    34.8548    8.500000   557.331    676.2799   2.350842   0.220181    603.639    636.3527   2.7762     6111.284   
5841.693   9.69516    34.4115    8.500000   573.280    684.6428   2.341160   0.224700    612.580    634.9817   2.5613     6168.015   
5841.541   9.69516    32.7408    8.500000   601.251    689.0642   2.318061   0.220499    631.166    634.0168   2.2423     6205.835   
5841.389   9.69516    31.3578    8.500000   617.417    690.4535   2.298668   0.216860    642.934    633.4921   2.0443     6206.750   
5841.236   9.70065    30.3940    8.500000   623.351    690.9600   2.291433   0.215557    643.623    634.9158   1.9991     6254.024   
5841.084   9.69516    27.0446    8.500000   619.226    690.1210   2.291883   0.215879    642.186    635.6223   1.9902     6272.935   
5840.932   9.69516    23.0171    8.500000   618.787    690.9943   2.295111   0.217066    650.211    636.6646   1.9241     6111.895   
5840.779   9.69516    21.3699    8.500000   611.809    687.6500   2.298720   0.215323    664.672    645.2932   1.8359     6055.164   
5840.627   9.70065    22.1972    8.500000   598.909    676.6714   2.307799   0.206280    683.292    658.8240   1.7855     6039.915   
5840.475   9.68051    24.4890    8.500000   569.111    662.3668   2.330926   0.198820    697.158    673.6919   1.7753     6021.615   
5840.322   9.59262    26.0297    8.500000   531.363    654.2677   2.370482   0.202367    709.139    682.1703   1.7877     6036.864   
5840.170   9.37291    25.4958    8.500000   498.662    653.9430   2.414299   0.214648    713.376    681.4558   1.8340     6119.824   
5840.017   9.53403    23.3691    8.500000   482.825    661.0486   2.446137   0.230029    714.051    675.9581   1.6982     6147.885   
5839.864   9.55234    21.9111    8.500000   481.889    667.8696   2.455052   0.238901    710.638    673.4385   1.6933     6159.475   
5839.712   9.56333    21.5897    8.500000   494.729    669.8032   2.445683   0.236035    704.379    673.4941   1.7646     6143.005   
5839.560   9.57798    23.5063    8.500000   504.056    670.3503   2.432022   0.232978    698.885    677.6941   1.8495     6102.439   
5839.407   9.53586    28.1113    8.500000   507.678    668.0842   2.423584   0.228749    700.139    680.7063   1.9491     6146.055   
5839.255   9.57797    34.2809    8.500000   506.643    664.4803   2.420969   0.224686    689.506    676.6687   2.0422     6166.795   
5839.103   9.56333    39.1090    8.500000   502.968    662.7845   2.420603   0.224028    665.762    667.6279   2.2438     6159.779   
5838.950   9.56333    39.4696    8.500000   500.068    655.6183   2.416807   0.216200    636.358    648.6423   2.4435     6146.055   
5838.798   9.49009    35.8096    8.500000   503.807    652.2196   2.395940   0.210416    608.673    625.9447   2.5959     6089.935   
5838.646   9.43699    30.2648    8.500000   544.100    656.6390   2.355126   0.200623    594.035    608.1287   2.5630     6077.124   
5838.493   9.70980    25.8223    8.500000   589.005    668.0505   2.312880   0.199016    594.613    596.9919   2.2192     6064.925   
5838.341   9.75374    23.8183    8.500000   616.086    680.7581   2.297670   0.205606    596.209    593.0526   2.0996     6126.535   
5838.188   9.78304    24.1530    8.500000   605.625    690.5674   2.316422   0.220852    596.687    596.9203   2.0918     6155.814   
5838.036   9.76656    24.5219    8.500000   559.280    677.2190   2.363044   0.220630    598.500    600.4281   2.1615     6157.035   
5837.884   9.65121    24.8303    8.500000   494.516    654.1050   2.409805   0.216521    607.710    615.0073   2.2495     6182.044   
5837.731   9.47544    24.2713    8.500000   473.894    637.1271   2.420809   0.203298    632.321    632.5198   2.2762     6167.100   
5837.579   9.49009    24.5016    8.500000   502.460    636.0864   2.375072   0.190252    658.155    649.0594   2.0886     6087.495   
5837.426   9.73360    24.5456    8.500000   584.438    650.4142   2.287365   0.178459    682.339    658.8932   1.7517     6112.505   
5837.273   9.73909    24.3135    8.500000   689.032    668.4697   2.188801   0.168191    707.422    666.6249   1.5370     6121.044   
5837.121   9.76839    23.4775    8.500000   777.643    678.5110   2.108938   0.156339    731.065    672.6672   1.3518     6120.435   
5836.969   9.75008    23.8404    8.500000   825.406    677.7178   2.060458   0.143461    756.635    688.2107   1.2388     6146.055   
5836.816   9.75374    24.4480    8.500000   841.651    677.9042   2.040716   0.139793    782.268    701.8672   1.1639     6124.095   
5836.664   9.76839    26.3903    8.500000   841.417    678.3346   2.042051   0.140374    793.696    710.8804   1.1221     6105.795   
5836.512   9.75374    27.5413    8.500000   828.416    683.6903   2.063243   0.149985    794.546    710.7123   1.1110     6085.664   
5836.359   9.76839    27.0973    8.500000   784.741    686.2198   2.105278   0.163858    792.930    705.8795   1.0906     6061.265   
5836.207   9.78304    26.2363    8.500000   729.951    688.2036   2.158000   0.180707    785.274    700.3351   1.0836     6138.734   
5836.055   9.81233    25.1915    8.500000   683.115    685.4630   2.206090   0.190662    782.441    698.6843   1.0776     6155.204   
5835.902   9.79768    24.5985    8.500000   654.271    686.7919   2.238822   0.200883    786.625    701.7965   1.0632     6201.564   
5835.750   9.81599    24.8162    8.500000   643.759    686.1302   2.254230   0.203321    800.434    706.7976   0.9947     6238.774   
5835.598   9.82698    25.0325    8.500000   643.986    687.1754   2.259917   0.204510    811.530    706.3492   0.9280     6275.984   
5835.445   9.82698    25.0342    8.500000   638.409    687.4587   2.265074   0.206589    810.457    705.6628   0.9394     6314.415   
5835.293   9.81233    25.0303    8.500000   631.925    685.7618   2.270660   0.206587    795.081    706.2468   1.0562     6352.234   
5835.141   9.81599    24.0741    8.500000   626.716    683.1177   2.277072   0.205047    775.771    706.8639   1.2219     6224.135   
5834.988   9.81233    22.9431    8.500000   617.631    683.4871   2.287136   0.208411    757.540    705.4286   1.3517     6091.765   
5834.835   9.82698    22.4310    8.500000   606.030    682.4972   2.299890   0.211003    751.200    699.0453   1.3347     6038.084   
5834.683   9.83247    21.4794    8.500000   592.970    678.2441   2.312529   0.210192    753.880    683.8214   1.2116     6071.635   
5834.530   9.84162    20.5290    8.500000   577.046    671.0856   2.322991   0.206862    751.741    672.1995   1.1046     6118.604   
5834.378   9.73909    19.8684    8.500000   568.197    665.5730   2.327443   0.203132    742.255    662.5942   1.1490     6150.324   
5834.226   9.63656    20.0573    8.500000   569.500    662.8308   2.325406   0.199263    723.559    657.8156   1.3095     6131.415   
5834.073   9.66768    21.1406    8.500000   574.061    664.5171   2.323356   0.199768    703.369    657.6172   1.4879     6165.575   
5833.921   9.73909    24.2505    8.500000   570.219    663.9840   2.325672   0.200447    690.575    660.1025   1.6241     6173.505   
5833.769   9.78304    28.2235    8.500000   551.893    647.5692   2.333646   0.186287    688.977    663.1903   1.6949     6185.095   
5833.616   9.75374    30.8372    8.500000   512.832    615.8177   2.348012   0.159405    697.297    673.3850   1.7296     6122.875   
5833.464   9.71712    31.7502    8.500000   472.679    584.2655   2.373359   0.132229    711.315    683.8586   1.7302     6150.020   
5833.312   9.69515    31.0796    8.500000   435.559    568.7990   2.411273   0.126400    724.857    694.9783   1.6866     6115.555   
5833.159   9.63656    30.0270    8.500000   414.497    575.1099   2.444527   0.145424    743.464    704.0896   1.6284     6111.284   
5833.007   9.53586    29.4161    8.500000   434.884    601.8806   2.438807   0.173432    758.961    710.3549   1.5537     6099.694   
5832.854   9.69515    29.3729    8.500000   497.183    629.1616   2.387933   0.183314    771.805    708.6401   1.3502     6075.295   
5832.702   9.82698    28.6551    8.500000   564.918    651.0913   2.326592   0.186109    781.776    707.4713   1.1844     6089.935   
5832.550   9.86543    27.4463    8.500000   605.655    665.9672   2.294762   0.190864    789.535    708.2374   1.1120     6096.949   
5832.397   9.87092    26.1894    8.500000   603.481    676.3243   2.306249   0.204336    796.628    715.2594   1.0854     6158.255   
5832.245   9.84162    25.9226    8.500000   566.744    678.7200   2.347770   0.219808    810.320    723.8850   1.0981     6203.090   
5832.092   9.79951    25.4779    8.500000   529.735    675.8450   2.382584   0.229795    817.237    735.7983   1.1529     6221.694   
5831.939   9.82698    24.7240    8.500000   529.105    669.2765   2.381027   0.221962    816.166    742.9735   1.2378     6196.685   
5831.787   9.82698    24.1652    8.500000   552.917    662.0999   2.347941   0.204256    803.563    746.9578   1.3653     6124.095   
5831.635   9.83247    23.8571    8.500000   583.201    662.2299   2.311954   0.193763    790.049    744.6890   1.4488     6135.989   
5831.482   9.84162    24.5941    8.500000   603.292    668.5066   2.293257   0.194790    785.845    736.7421   1.3992     6065.535   
5831.330   9.84162    25.9121    8.500000   606.697    675.8953   2.297525   0.202750    784.874    717.4264   1.2616     6047.540   
5831.178   9.83247    26.5263    8.500000   590.862    680.7717   2.306878   0.213977    763.804    686.9076   1.1758     6070.415   
5831.025   9.82698    26.1006    8.500000   599.099    677.6958   2.294668   0.207468    725.670    658.6144   1.2468     6031.375   
5830.873   9.75374    26.2332    8.500000   627.812    669.2737   2.258516   0.187777    682.216    640.5975   1.5006     6040.524   
5830.721   9.88191    26.6281    8.500000   655.486    664.7832   2.225782   0.173594    651.486    633.1361   1.7055     6052.725   
5830.568   9.90022    28.2906    8.500000   668.381    671.4031   2.215856   0.177891    641.525    634.8849   1.8500     6101.220   
5830.416   9.90022    29.2219    8.500000   664.639    680.1007   2.229648   0.189650    650.376    639.6863   1.8379     6158.255   
5830.264   9.91486    29.1121    8.500000   645.569    688.1587   2.256284   0.205201    661.100    642.2388   1.7342     6194.854   
5830.111   9.92951    27.4076    8.500000   621.181    686.5145   2.283298   0.210918    674.980    649.6621   1.6374     6177.774   
5829.959   9.92951    25.2178    8.500000   601.162    681.0995   2.300346   0.210921    690.351    659.6775   1.5877     6126.535   
5829.807   9.92951    23.1931    8.500000   592.987    674.0515   2.293888   0.205061    697.129    666.9534   1.6089     6132.024   
5829.654   9.93134    22.4380    8.500000   624.234    669.1927   2.250254   0.188818    689.457    668.7637   1.7171     6097.864   
5829.501   9.92951    21.9459    8.500000   687.166    661.6766   2.172642   0.160293    667.321    659.6189   1.9012     6036.864   
5829.349   9.93134    22.4967    8.500000   764.778    651.6516   2.086831   0.126292    635.770    642.6686   2.0977     6003.314   
5829.196   9.92951    22.8654    8.500000   822.818    643.0206   2.019661   0.100655    616.520    629.8818   2.1603     6039.305   
5829.044   9.92951    22.7963    8.500000   851.010    636.2870   1.982597   0.085223    626.937    627.5481   1.9905     6126.535   
5828.892   9.93134    24.5250    8.500000   857.468    634.2347   1.966593   0.081043    654.540    634.3013   1.7216     6179.604   
5828.739   9.92951    28.3437    8.500000   868.411    635.0000   1.959671   0.079506    684.493    648.4691   1.5458     6215.595   
5828.587   9.92951    33.2901    8.500000   874.717    637.9751   1.967312   0.081923    695.133    658.3970   1.5552     6237.555   
5828.435   9.92951    40.4450    8.500000   838.854    643.3530   2.002809   0.097224    676.209    657.9076   1.7864     6268.055   
5828.282   9.92951    50.6217    8.500000   764.773    637.8169   2.069278   0.108558    640.899    652.6761   2.2419     6231.455   
5828.130   9.91486    66.9814    8.500000   640.733    604.2003   2.167453   0.099171    594.248    635.5372   3.0212     6185.704   
5827.978   9.56332    87.2583    8.500000   491.919    554.3721   2.299565   0.080853    529.401    599.3051   4.5547     6119.824   
5827.825   9.15319    108.0426   8.500000   362.367    504.1237   2.450161   0.063408    452.419    552.0214   6.5755     6044.795   
5827.673   9.05066    124.1836   8.500000   281.168    472.2388   2.598356   0.060104    374.219    501.8975   8.9129     5975.255   
5827.521   9.00672    133.9705   8.500000   232.188    465.4736   2.715262   0.086427    306.736    461.0540   11.6307    6010.635   
5827.368   9.00672    136.2262   8.500000   220.801    472.7039   2.776809   0.109214    266.700    440.5479   14.0714    6010.635   
5827.216   9.00855    136.4285   8.500000   221.925    474.7999   2.789980   0.111854    250.184    433.8377   15.6152    6034.425   
5827.063   8.99207    134.1446   8.500000   222.474    473.8009   2.783615   0.109620    247.159    434.9188   16.1959    6109.455   
5826.910   8.88954    130.5263   8.500000   223.327    465.9548   2.773079   0.095056    251.031    438.9455   16.2074    6157.645   
5826.758   8.86024    127.9800   8.500000   221.664    458.7241   2.762099   0.083623    254.922    439.5275   15.8861    6185.704   
5826.605   8.84376    127.4485   8.500000   218.272    445.7181   2.752665   0.062935    256.234    437.0170   15.5769    6188.145   
5826.453   8.86024    126.6012   8.500000   213.460    432.0534   2.747747   0.041656    255.746    433.6330   15.3527    6155.204   
5826.301   8.84559    126.4073   8.500000   214.867    438.5706   2.716073   0.052717    254.873    430.4307   15.2722    6070.415   
5826.148   8.84376    120.8516   8.500000   270.291    472.3368   2.614918   0.068160    253.756    429.1030   15.2110    6161.305   
5825.996   9.25572    106.4270   8.500000   379.638    525.1702   2.460894   0.087904    254.241    427.5131   14.7584    6215.595   
5825.844   9.60726    87.0738    8.500000   511.780    584.5184   2.318010   0.116706    253.466    426.3387   14.4188    6265.005   
5825.691   9.89838    69.9381    8.500000   623.685    625.1063   2.217144   0.132672    252.692    426.7789   14.2425    6302.215   
5825.539   9.90021    59.6147    8.500000   683.852    637.3258   2.166097   0.130270    259.720    440.6541   14.0232    6332.715   
5825.387   9.88556    58.3007    8.500000   678.828    638.2073   2.165170   0.132885    287.946    470.3184   12.9256    6349.489   
5825.234   9.89838    59.6938    8.500000   642.545    636.9808   2.202370   0.142271    338.047    509.3958   10.8683    6182.044   
5825.082   9.88556    59.7905    8.500000   586.084    627.6361   2.261981   0.148436    399.316    546.3138   8.5741     6077.734   
5824.930   9.66585    57.3517    8.500000   514.146    607.9540   2.335220   0.148272    452.302    570.0865   6.8937     6035.035   
5824.777   9.29967    53.1222    8.500000   444.128    583.0431   2.413156   0.142948    484.608    580.7429   6.0215     6002.095   
5824.625   9.23924    50.4531    8.500000   391.997    566.7142   2.483077   0.144422    502.252    585.1016   5.4326     5974.035   
5824.473   9.07995    49.5383    8.500000   370.711    571.7571   2.532388   0.162900    512.896    591.2157   5.2892     6035.645   
5824.320   9.05798    49.2611    8.500000   375.564    593.5343   2.552190   0.191194    518.415    595.0739   5.2274     6106.404   
5824.167   9.40220    49.4660    8.500000   398.372    617.9586   2.542722   0.212741    516.692    595.0127   4.9301     6167.404   
5824.015   9.44614    48.7217    8.500000   428.296    635.6377   2.514175   0.221581    510.922    590.0310   5.0039     6204.005   
5823.862   9.46994    47.6394    8.500000   455.880    646.1287   2.482074   0.222637    504.549    589.7014   5.0732     6229.015   
5823.710   9.51938    46.5572    8.500000   474.938    651.9675   2.455820   0.221886    508.010    589.7363   4.9416     6251.279   
5823.558   9.50290    43.5587    8.500000   491.056    657.4475   2.430942   0.222137    519.894    594.1169   4.6442     6290.015   
5823.405   9.51938    39.7143    8.500000   511.269    655.5731   2.400792   0.211717    542.474    606.3667   4.1391     6304.655   
5823.253   9.65121    37.1337    8.500000   530.368    651.1497   2.365679   0.198793    577.302    622.7972   3.4276     6343.694   
5823.101   9.73360    35.4151    8.500000   539.161    632.2938   2.341267   0.171223    612.626    643.1372   2.8597     6391.885   
5822.948   9.46079    35.5222    8.500000   512.962    607.9534   2.348072   0.148732    639.210    662.6779   2.8655     6432.145   
5822.796   9.19713    36.1072    8.500000   459.720    582.5375   2.374485   0.135336    649.833    674.4479   3.1042     6482.164   
5822.644   9.18981    35.0326    8.500000   448.923    573.4185   2.355733   0.127045    644.104    675.6802   3.3625     6500.465   
5822.491   9.88557    34.6682    8.500000   529.383    574.1351   2.252271   0.095135    623.755    673.6160   3.1286     6529.744   
5822.339   10.11993   35.6511    8.500000   676.185    589.3159   2.097512   0.067796    594.100    653.6661   3.3548     6557.805   
5822.187   10.10528   38.3398    8.500000   834.524    597.5662   1.958451   0.037244    546.960    615.2379   3.8089     6580.984   
5822.034   10.12908   41.4856    8.500000   935.043    602.7097   1.873091   0.021602    497.734    573.6154   4.2911     6260.734   
5821.882   10.10528   47.0863    8.500000   959.886    602.0408   1.843962   0.015445    466.184    551.7850   4.7741     5974.340   
5821.729   10.11993   54.5269    8.500000   956.538    608.5574   1.855313   0.025039    463.429    554.7987   4.9984     5905.104   
5821.576   10.11993   61.9053    8.500000   921.970    619.5560   1.901270   0.047198    485.054    577.9092   4.9044     5849.595   
5821.424   10.16387   67.8146    8.500000   836.147    624.8325   1.984382   0.073731    517.198    604.3320   4.4805     5925.540   
5821.271   9.84162    71.8694    8.500000   696.585    608.0505   2.108634   0.087722    545.438    619.1284   4.2180     6000.875   
5821.119   9.37290    69.5343    8.500000   533.173    578.8508   2.263290   0.100471    568.080    625.0958   4.0505     6053.335   
5820.967   9.02136    64.3932    8.500000   400.261    536.8643   2.421389   0.095533    588.888    630.1901   3.8274     6099.084   
5820.814   9.02502    58.4522    8.500000   318.747    510.6715   2.545205   0.099700    604.860    631.7990   3.3892     6132.024   
5820.662   9.00672    51.3213    8.500000   297.060    514.2119   2.597830   0.119491    613.675    631.9548   3.1824     6168.015   
5820.510   9.16784    44.6724    8.500000   331.663    539.7482   2.564803   0.137528    614.941    636.3612   3.1083     6211.935   
5820.357   9.40220    41.3095    8.500000   397.987    565.6046   2.479932   0.139772    606.990    641.1940   3.2211     6246.095   
5820.205   9.40220    38.7168    8.500000   468.966    592.8040   2.388643   0.145796    586.806    634.9506   3.6549     6260.124   
5820.053   9.40220    38.3832    8.500000   531.532    606.6643   2.318557   0.139872    554.524    612.8507   4.1027     6228.404   
